#WAVELENGTH FLUX ERROR MASK
       7490.1032       89317.149       37737.125       0
       7502.1639       72977.794       28389.168       0
       7514.2247       62740.465       25134.724       0
       7526.2854       63285.142       20462.596       0
       7538.3461       42635.017       18065.502       0
       7550.4068       36668.831       13830.386       0
       7562.4676       21382.194       11450.371       0
       7574.5283       16463.591       8570.9901       0
       7586.5890       7452.1531       8309.1397       0
       7598.6497       9200.6884       5711.1439       0
       7610.7105       7510.0879       5144.6849       0
       7622.7712       10446.263       4180.8562       0
       7634.8319       10945.280       3794.7467       0
       7646.8927       6871.9303       3087.4073       0
       7658.9534       7019.4199       3217.5684       0
       7671.0141       3970.1130       2204.4742       0
       7683.0748       3233.6416       1953.9326       0
       7695.1356       3682.2182       1547.4945       0
       7707.1963       3144.2719       1388.6855       0
       7719.2570       2138.1086       1141.5114       0
       7731.3177       3479.6092       1077.4076       0
       7743.3785       1945.6876       914.12255       0
       7755.4392       2027.3456       888.81148       0
       7767.4999       1575.2284       774.98860       0
       7779.5606       1238.9316       751.69717       0
       7791.6214       1465.6002       669.03168       0
       7803.6821       1039.8881       621.71304       0
       7815.7428       1012.9574       530.50849       0
       7827.8036       987.26914       504.50390       0
       7839.8643       1026.1336       430.19978       0
       7851.9250       1181.9284       432.67011       0
       7863.9857       803.97676       355.44489       0
       7876.0465       740.77282       343.39961       0
       7888.1072       808.90043       301.20636       0
       7900.1679       537.87034       314.31881       0
       7912.2286       640.16613       267.44010       0
       7924.2894       733.94508       307.34611       0
       7936.3501       746.50343       243.96543       0
       7948.4108       626.83801       243.65650       0
       7960.4715       646.27017       218.50846       0
       7972.5323       905.18835       224.05809       0
       7984.5930       421.86064       201.55470       0
       7996.6537       901.08859       207.85323       0
       8008.7145       715.54215       193.56345       0
       8020.7752       738.20369       195.64308       0
       8032.8359       528.48318       196.78877       0
       8044.8966       904.05160       198.45358       0
       8056.9574       747.78548       185.17288       0
       8069.0181       712.58559       196.03043       0
       8081.0788       518.19378       209.38082       0
       8093.1395       563.18880       173.33636       0
       8105.2003       748.66001       212.62570       0
       8117.2610       503.69107       163.60173       0
       8129.3217       584.73191       155.83460       0
       8141.3825       399.01992       157.22723       0
       8153.4432       483.39011       151.20023       1
       8165.5039       530.18134       155.56999       1
       8177.5646       426.40957       143.01020       1
       8189.6254       307.72482       148.30506       1
       8201.6861       274.66068       137.08622       1
       8213.7468       390.00478       141.29590       1
       8225.8075       563.63123       133.54624       1
       8237.8683       338.05405       136.80376       1
       8249.9290       515.56112       159.35768       1
       8261.9897       468.77843       130.94129       1
       8274.0504       341.96949       151.14720       1
       8286.1112       343.42281       123.44996       1
       8298.1719       343.08930       117.22968       1
       8310.2326       456.80245       121.01888       1
       8322.2934       494.14698       113.20100       1
       8334.3541       503.69196       115.88262       1
       8346.4148       517.67856       109.52654       1
       8358.4755       400.64656       110.08044       1
       8370.5363       500.47102       105.43765       1
       8382.5970       411.25635       108.38362       1
       8394.6577       550.15536       105.15287       1
       8406.7184       427.93259       105.17087       1
       8418.7792       514.54272       102.03423       1
       8430.8399       523.71127       103.27056       1
       8442.9006       416.39440       95.766767       1
       8454.9613       497.26349       100.10088       1
       8467.0221       418.93607       92.374531       1
       8479.0828       452.29578       104.16228       1
       8491.1435       408.62248       89.707191       1
       8503.2043       407.80020       107.83393       1
       8515.2650       413.12696       87.953518       1
       8527.3257       448.82230       93.180193       1
       8539.3864       403.53801       86.107731       1
       8551.4472       397.49425       90.402455       1
       8563.5079       434.36438       86.807284       1
       8575.5686       458.23096       94.653339       1
       8587.6293       494.65527       85.189290       1
       8599.6901       364.61145       106.35068       1
       8611.7508       391.65071       85.745824       1
       8623.8115       443.33903       90.041341       1
       8635.8722       324.57780       83.601636       1
       8647.9330       404.41659       88.397158       1
       8659.9937       423.90536       81.846185       1
       8672.0544       449.44408       87.094512       1
       8684.1152       385.38193       79.455803       1
       8696.1759       430.08469       83.488902       1
       8708.2366       431.71883       77.576980       1
       8720.2973       345.14661       79.543468       1
       8732.3581       405.77160       74.436954       1
       8744.4188       322.17143       77.899975       1
       8756.4795       372.62554       73.333528       1
       8768.5402       383.22516       75.813478       1
       8780.6010       322.00635       70.596605       1
       8792.6617       341.86726       74.362489       1
       8804.7224       368.25235       70.556040       1
       8816.7832       300.66374       71.956488       1
       8828.8439       329.67502       68.552820       1
       8840.9046       407.91841       70.744646       1
       8852.9653       344.10064       67.530657       1
       8865.0261       325.76839       79.392012       1
       8877.0868       356.53019       66.171462       1
       8889.1475       379.94915       70.530951       1
       8901.2082       366.98559       64.886977       1
       8913.2690       273.82302       68.551043       1
       8925.3297       411.84913       63.158728       1
       8937.3904       390.82321       66.443315       1
       8949.4511       379.54462       62.742556       1
       8961.5119       388.62945       65.702097       1
       8973.5726       416.92638       60.959022       1
       8985.6333       429.59433       63.795217       1
       8997.6941       370.59892       60.089432       1
       9009.7548       394.40369       62.755349       1
       9021.8155       388.32071       58.825231       1
       9033.8762       251.84066       60.897466       1
       9045.9370       334.51561       58.188166       1
       9057.9977       358.06425       61.484791       1
       9070.0584       413.88258       59.953841       1
       9082.1191       384.32890       60.445108       1
       9094.1799       424.03251       59.515875       1
       9106.2406       377.96641       60.976919       1
       9118.3013       404.99551       56.924081       1
       9130.3620       340.67739       63.625910       1
       9142.4228       378.22267       55.531381       1
       9154.4835       377.90131       57.087128       1
       9166.5442       333.80376       54.397668       1
       9178.6050       445.72460       58.033192       1
       9190.6657       352.49414       53.743427       1
       9202.7264       383.17057       56.442006       1
       9214.7871       323.93595       52.183770       1
       9226.8479       347.28979       54.408765       1
       9238.9086       369.37643       51.647200       1
       9250.9693       339.85623       53.847021       1
       9263.0300       300.03520       51.106230       1
       9275.0908       345.25377       54.337667       1
       9287.1515       312.52963       49.880535       1
       9299.2122       408.81195       53.375524       1
       9311.2730       361.52860       50.175641       1
       9323.3337       332.90154       52.843752       1
       9335.3944       392.74947       49.803281       1
       9347.4551       305.43504       51.926701       1
       9359.5159       402.77480       49.327234       1
       9371.5766       364.62208       52.971474       1
       9383.6373       362.29800       49.060155       1
       9395.6980       360.85404       51.433197       1
       9407.7588       404.69438       48.630426       1
       9419.8195       393.64643       51.630686       1
       9431.8802       373.89494       51.242869       1
       9443.9409       357.21356       49.986207       1
       9456.0017       355.03614       47.011386       1
       9468.0624       363.99180       49.597423       1
       9480.1231       371.84152       46.497838       1
       9492.1839       396.45024       51.566653       1
       9504.2446       368.64197       46.051088       1
       9516.3053       379.22061       48.720515       1
       9528.3660       341.18363       45.234233       1
       9540.4268       337.53499       50.255320       1
       9552.4875       354.91472       45.224989       1
       9564.5482       359.75817       47.444582       1
       9576.6089       341.25472       44.537926       1
       9588.6697       391.85735       47.450978       1
       9600.7304       361.10155       44.189362       1
       9612.7911       361.96961       46.385372       1
       9624.8518       382.74633       43.866814       1
       9636.9126       380.85503       46.675360       1
       9648.9733       356.52848       43.371415       1
       9661.0340       350.51656       45.925926       1
       9673.0948       340.04947       43.265913       1
       9685.1555       328.14298       44.659722       1
       9697.2162       362.77482       43.287682       1
       9709.2769       378.22064       45.018117       1
       9721.3377       376.81457       42.573642       1
       9733.3984       338.48269       44.363926       1
       9745.4591       331.80306       41.991868       1
       9757.5198       294.86127       43.321650       1
       9769.5806       328.54963       41.953995       1
       9781.6413       331.86806       43.676064       1
       9793.7020       367.83305       42.246783       1
       9805.7628       329.14368       43.344669       1
       9817.8235       328.84614       41.322686       1
       9829.8842       306.06066       43.017754       1
       9841.9449       368.14220       41.826381       1
       9854.0057       315.28706       43.104913       1
       9866.0664       368.23267       41.082436       1
       9878.1271       353.53433       42.984570       1
       9890.1878       364.65021       41.333402       1
       9902.2486       351.52289       43.165026       1
       9914.3093       299.99309       40.104086       1
       9926.3700       314.24893       42.454874       1
       9938.4307       324.59763       40.132043       1
       9950.4915       386.91997       42.855974       1
       9962.5522       329.38556       40.721542       1
       9974.6129       395.05889       42.467059       1
       9986.6737       333.37843       39.257838       1
       9998.7344       361.48401       42.077256       1
       10010.795       342.51362       39.470053       1
       10022.856       357.20170       41.071546       1
       10034.917       334.18609       38.274891       1
       10046.977       394.16643       41.330396       1
       10059.038       359.11566       39.242379       1
       10071.099       320.95629       40.617158       1
       10083.159       351.63978       38.279526       1
       10095.220       252.79896       39.287795       1
       10107.281       310.89720       38.023188       1
       10119.342       316.59153       40.324785       1
       10131.402       273.08936       37.755909       1
       10143.463       342.12754       40.940279       1
       10155.524       317.77638       37.598976       1
       10167.585       363.97361       40.102105       1
       10179.645       418.00459       38.979970       1
       10191.706       308.50805       39.304448       1
       10203.767       345.24087       38.209613       1
       10215.827       363.39692       39.646654       1
       10227.888       295.08373       36.676379       1
       10239.949       297.40524       46.920614       1
       10252.010       313.37826       36.450746       1
       10264.070       330.33331       38.530469       1
       10276.131       332.15072       36.595682       1
       10288.192       341.51426       37.940087       1
       10300.253       299.82749       36.327191       1
       10312.313       318.14037       37.292388       1
       10324.374       339.72267       35.658544       1
       10336.435       307.51915       37.356092       1
       10348.495       286.94074       34.988447       1
       10360.556       326.06841       37.205758       1
       10372.617       309.88190       36.110048       1
       10384.678       339.87569       37.650514       1
       10396.738       346.11814       35.165249       1
       10408.799       316.48355       37.127938       1
       10420.860       285.59297       34.685075       1
       10432.921       334.09270       36.773269       1
       10444.981       279.36351       34.598448       1
       10457.042       321.63132       36.313708       1
       10469.103       298.88230       36.826887       1
       10481.163       319.85387       36.707987       1
       10493.224       324.26195       34.677875       1
       10505.285       313.76562       38.386021       1
       10517.346       330.53187       34.999338       1
       10529.406       328.86853       36.508247       1
       10541.467       327.52959       37.405049       1
       10553.528       303.42382       36.616886       1
       10565.589       303.53211       34.809370       1
       10577.649       280.37165       37.972445       1
       10589.710       299.99131       34.561486       1
       10601.771       313.38100       36.156968       1
       10613.831       295.91286       34.074599       1
       10625.892       277.40645       35.644305       1
       10637.953       285.31851       33.801988       1
       10650.014       289.49371       37.040813       1
       10662.074       273.68364       33.251349       1
       10674.135       264.36495       40.014531       1
       10686.196       288.12373       33.123271       1
       10698.257       272.09088       34.358520       1
       10710.317       275.37122       33.073684       1
       10722.378       250.99730       34.677671       1
       10734.439       270.65019       33.200919       1
       10746.499       253.89299       34.514909       1
       10758.560       280.55506       33.321441       1
       10770.621       277.14562       36.614411       1
       10782.682       279.26428       33.147594       1
       10794.742       280.73816       34.709084       1
       10806.803       322.18004       33.126559       1
       10818.864       266.60257       34.244331       1
       10830.925       291.78792       33.056572       1
       10842.985       284.77594       34.634843       1
       10855.046       282.31013       33.083272       1
       10867.107       287.54345       34.657916       1
       10879.167       292.50737       32.310072       1
       10891.228       281.98817       33.911619       1
       10903.289       297.93735       32.602229       1
       10915.350       287.47029       34.158659       1
       10927.410       274.64091       32.002039       1
       10939.471       278.62926       33.914304       1
       10951.532       305.54594       32.747380       1
       10963.593       303.72545       33.929066       1
       10975.653       303.17646       32.181428       1
       10987.714       303.89338       35.349424       1
       10999.775       296.57764       32.773252       1
       11011.835       284.00861       33.311058       1
       11023.896       298.45036       41.539592       1
       11035.957       286.05495       33.593972       1
       11048.018       306.85286       32.134251       1
       11060.078       319.09430       43.576155       1
       11072.139       308.51664       32.803053       1
       11084.200       278.98791       33.068948       1
       11096.261       269.81017       31.826669       1
       11108.321       276.61054       33.368392       1
       11120.382       268.75336       35.688179       1
       11132.443       292.27710       33.692740       1
       11144.503       315.96412       32.020301       1
       11156.564       278.16817       33.192798       1
       11168.625       308.25748       32.712544       1
       11180.686       265.69967       33.317604       1
       11192.746       281.50928       31.919252       1
       11204.807       269.49255       33.900119       0
       11216.868       255.70472       33.985152       0
       11228.929       318.95111       33.943041       0
       11240.989       264.79991       31.781056       0
       11253.050       287.16261       33.683670       0
       11265.111       289.11177       31.763257       0
       11277.171       327.45687       34.053522       0
       11289.232       327.06426       32.068623       0
       11301.293       291.43052       33.980883       0
       11313.354       245.59089       31.780269       0
       11325.414       260.73993       33.823675       0
       11337.475       286.11658       32.783528       0
       11349.536       307.41967       35.420828       0
       11361.597       269.98479       34.381732       0
       11373.657       297.17369       38.563946       0
       11385.718       276.38967       38.318420       0
       11397.779       319.23167       43.900115       0
       11409.839       266.25886       45.235577       0
       11421.900       310.31177       52.991436       0
       11433.961       318.88924       56.976696       0
       11446.022       321.50460       66.949142       0
       11458.082       270.72378       75.438641       0
       11470.143       365.71096       86.775445       0
       11482.204       299.39015       94.875134       0
       11494.265       444.55511       108.76426       0
       11506.325       389.74603       114.68399       0
       11518.386       492.83770       132.64944       0
       11530.447       497.17363       139.80557       0
       11542.507       321.92393       163.24721       0
       11554.568       250.95099       189.67761       0
       11566.629       575.72428       237.56942       0
       11578.690       434.89322       250.08990       0
       11590.750       642.04891       350.77808       0
       11602.811       985.67994       444.85122       0
       11614.872       763.60604       504.69995       0
       11626.932       497.48391       587.67733       0
       11638.993       572.67369       758.04101       0
       11651.054       1043.0623       863.49731       0
       11663.115       1636.6188       1091.0136       0
       11675.175       1200.7301       1324.0663       0
       11687.236       1341.8255       1770.1615       0
       11699.297       3478.0218       2170.1612       0
       11711.358       4489.9038       2937.4774       0
       11723.418       4694.2071       3666.4810       0
       11735.479       2628.8975       5218.7355       0
       11747.540       2139.8533       5616.6868       0
       11759.600      -1661.9687       6240.9921       0
       11771.661       4514.6155       6121.0553       0
       11783.722       4194.6902       6304.4125       0
       11795.783       4005.5873       6749.7024       0
       11807.843       3684.6037       6068.4875       0
       11819.904       4798.9608       6814.5560       0
