#WAVELENGTH FLUX ERROR MASK
       10234.505       2965.9322       2840.0960       0
       10257.911       2797.6841       2226.4550       0
       10281.317       1364.5964       2075.2974       0
       10304.723       1551.3949       1643.4154       0
       10328.129       659.66449       1595.1910       0
       10351.535       319.12747       1314.0624       0
       10374.941       1028.0117       1324.1196       0
       10398.347       313.09790       1089.2797       0
       10421.753       941.00154       1089.9171       0
       10445.159       389.92720       865.99770       0
       10468.565       806.12740       814.01101       0
       10491.971       531.57432       627.71742       0
       10515.377       594.68586       568.61243       0
       10538.783       203.11379       449.10827       0
       10562.189       268.64586       417.28836       0
       10585.595       59.528358       342.33215       0
       10609.001       201.52154       328.46709       0
       10632.408       249.40724       275.24993       0
       10655.814       303.65472       265.50086       0
       10679.220       217.77915       217.01987       0
       10702.626       326.30193       202.69203       0
       10726.032       69.942360       39834617.       0
       10749.438       156.36686       140.06474       0
       10772.844       157.32136       108.41106       0
       10796.250       135.17420       97.289648       0
       10819.656       84.664424       77.584679       0
       10843.062       133.51500       72.390922       0
       10866.468       43.815784       60.387998       0
       10889.874       64.282571       58.758393       0
       10913.280       85.577251       51.183219       0
       10936.686       93.861190       51.286914       0
       10960.092       78.267943       44.355984       0
       10983.498       82.291121       44.501382       0
       11006.904       98.564860       38.687337       1
       11030.311       61.924152       38.578243       1
       11053.717       69.202498       33.579490       1
       11077.123       94.148827       34.759535       1
       11100.529       78.727348       30.345123       1
       11123.935       92.982844       31.842595       1
       11147.341       91.678423       28.534140       1
       11170.747       73.500990       30.087499       1
       11194.153       81.219424       27.326957       1
       11217.559       71.067810       29.031766       1
       11240.965       74.767570       26.546413       1
       11264.371       83.064462       28.508440       1
       11287.777       77.059359       26.064003       1
       11311.183       56.110739       25.874241       1
       11334.589       68.895599       25.443304       1
       11357.995       73.817214       27.378096       1
       11381.401       78.352402       25.011356       1
       11404.807       75.858310       26.862293       1
       11428.213       80.300370       24.646492       1
       11451.620       66.022638       26.394360       1
       11475.026       79.556330       24.299768       1
       11498.432       81.220179       26.312771       1
       11521.838       88.794969       24.322590       1
       11545.244       73.947466       26.075943       1
       11568.650       89.260107       24.067474       1
       11592.056       88.556343       25.899659       1
       11615.462       87.020125       23.780583       1
       11638.868       86.002742       25.482054       1
       11662.274       78.410245       23.243640       1
       11685.680       81.445093       24.846417       1
       11709.086       82.025982       22.675422       1
       11732.492       70.528057       23.973434       1
       11755.898       87.724990       22.267702       1
       11779.304       69.355045       22.549925       1
       11802.710       63.075567       21.494328       1
       11826.116       89.159852       23.277068       1
       11849.523       83.072787       21.302544       1
       11872.929       44.289378       21.477193       1
       11896.335       66.321407       20.740243       1
       11919.741       63.081286       22.270303       1
       11943.147       54.336269       20.426317       1
       11966.553       56.428440       21.978856       1
       11989.959       65.813493       20.257200       1
       12013.365       68.836299       21.867036       1
       12036.771       62.482350       19.946637       1
       12060.177       65.809423       21.488789       1
       12083.583       80.646849       19.786421       1
       12106.989       69.335175       21.263358       1
       12130.395       82.282463       19.572990       1
       12153.801       67.087344       21.028932       1
       12177.207       64.141332       19.314900       1
       12200.613       77.923236       20.645653       1
       12224.019       38.259855       17.652181       1
       12247.425       67.806518       20.271307       1
       12270.832       67.153698       18.857152       1
       12294.238       59.877336       19.919430       1
       12317.644       62.427297       18.676879       1
       12341.050       64.292230       19.821826       1
       12364.456       63.279989       18.418052       1
       12387.862       64.381960       19.571113       1
       12411.268       64.007120       18.260539       1
       12434.674       32.268400       18.070502       1
       12458.080       62.375774       18.061113       1
       12481.486       66.280308       19.375035       1
       12504.892       67.750886       18.293472       1
       12528.298       54.154727       19.060402       1
       12551.704       68.686884       17.908040       1
       12575.110       53.953375       18.897599       1
       12598.516       55.760231       17.680257       1
       12621.922       59.222086       18.899367       1
       12645.328       69.575260       17.730709       1
       12668.735       57.488432       18.797758       1
       12692.141       63.075130       17.472277       1
       12715.547       61.794513       18.626364       1
       12738.953       64.681439       17.253785       1
       12762.359       62.376726       18.601372       1
       12785.765       61.159719       16.855918       1
       12809.171       71.310102       18.503342       1
       12832.577       57.601515       16.699807       1
       12855.983       51.402516       18.200021       1
       12879.389       63.746332       16.705494       1
       12902.795       65.450848       18.240851       1
       12926.201       58.253157       16.335809       1
       12949.607       58.094844       18.010065       1
       12973.013       53.748750       16.164355       1
       12996.419       68.284071       17.797037       1
       13019.825       63.024271       16.113444       1
       13043.231       69.998291       17.585124       1
       13066.637       63.309806       15.964160       1
       13090.044       42.570395       15.924942       1
       13113.450       60.359345       15.840005       1
       13136.856       24.047737       14.172690       1
       13160.262       59.769024       15.597622       1
       13183.668       20.660562       14.007731       1
       13207.074       57.338962       15.413284       1
       13230.480       23.107910       13.897384       1
       13253.886       58.882523       15.295973       1
       13277.292       63.069302       16.701911       1
       13300.698       44.701977       15.147875       1
       13324.104       45.308308       15.552606       1
       13347.510       41.833437       14.152014       1
       13370.916       57.182010       16.370366       1
       13394.322       54.404368       14.926158       1
       13417.728       65.136357       16.322018       1
       13441.134       57.421361       14.818928       1
       13464.540       65.547563       16.136244       1
       13487.947       67.666065       14.881763       1
       13511.353       58.059165       15.929358       1
       13534.759       60.000201       14.671636       1
       13558.165       64.698199       15.860341       1
       13581.571       67.695339       14.743494       1
       13604.977       57.876600       15.825891       1
       13628.383       56.696949       14.569735       1
       13651.789       64.544876       15.925545       1
       13675.195       61.501911       14.643792       1
       13698.601       61.344571       15.856426       1
       13722.007       65.161969       14.761265       1
       13745.413       58.291343       15.968649       1
       13768.819       64.886748       14.864406       1
       13792.225       75.283430       16.229497       1
       13815.631       65.241525       14.842837       1
       13839.037       75.876995       16.180913       1
       13862.443       78.493606       14.945916       1
       13885.850       68.769132       15.982499       1
       13909.256       75.619385       14.715045       1
       13932.662       72.673478       15.868598       1
       13956.068       77.588770       14.574674       1
       13979.474       87.609033       15.893737       1
       14002.880       100.56535       14.752746       1
       14026.286       110.49486       15.981650       1
       14049.692       114.50645       14.720724       1
       14073.098       100.35424       15.735823       1
       14096.504       86.838889       14.354438       1
       14119.910       69.445130       15.292555       1
       14143.316       61.795318       13.976171       1
       14166.722       45.450007       13.975524       1
       14190.128       65.756690       13.991494       1
       14213.534       60.258285       15.033901       1
       14236.940       36.888583       12.114269       1
       14260.346       63.899764       14.973644       1
       14283.752       39.639243       12.037757       1
       14307.159       49.877060       13.774806       1
       14330.565       35.356040       11.931880       1
       14353.971       61.726415       14.728001       1
       14377.377       56.020018       13.661981       1
       14400.783       35.832532       13.498873       1
       14424.189       60.338723       3141690.9       1
       14447.595       51.714121       14.707578       1
       14471.001       47.801891       13.382465       1
       14494.407       47.567914       14.629102       1
       14517.813       47.256332       13.357866       1
       14541.219       31.582933       13.422571       1
       14564.625       39.950965       12.383501       1
       14588.031       37.151164       14.472981       1
       14611.437       46.709031       13.318704       1
       14634.843       46.499313       14.605561       1
       14658.249       52.914240       13.894574       1
       14681.655       28.500686       14.381046       1
       14705.062       50.906000       13.990125       1
       14728.468       37.678065       14.516807       1
       14751.874       53.808377       13.395265       1
       14775.280       43.351950       14.540314       1
       14798.686       46.850356       13.297800       1
       14822.092       47.670436       14.530129       1
       14845.498       34.523667       13.089432       1
       14868.904       47.345149       14.456305       1
       14892.310       46.549520       13.155248       1
       14915.716       47.639041       14.310373       1
       14939.122       52.778916       13.054326       1
       14962.528       43.758975       13.967465       1
       14985.934       45.828052       12.884417       1
       15009.340       46.469728       13.898722       1
       15032.746       43.407735       12.940870       1
       15056.152       41.357507       13.827245       1
       15079.558       48.663126       12.955614       1
       15102.964       44.243044       13.805059       1
       15126.371       39.352936       12.687038       1
       15149.777       52.616626       13.869348       1
       15173.183       40.601296       12.770069       1
       15196.589       43.798500       3233422.1       1
       15219.995       41.145679       12.766856       1
       15243.401       45.723328       13.685240       1
       15266.807       40.619739       12.740689       1
       15290.213       46.895118       13.755851       1
       15313.619       31.277055       11.866739       1
       15337.025       51.512938       13.797697       1
       15360.431       47.084949       12.796427       1
       15383.837       52.371997       13.854240       1
       15407.243       41.849438       12.823021       1
       15430.649       48.695456       13.786335       1
       15454.055       41.715335       12.874114       1
       15477.461       38.958302       13.769193       1
       15500.867       45.894056       12.945434       1
       15524.274       28.613180       12.869594       1
       15547.680       42.536258       12.914731       1
       15571.086       38.108788       13.858964       1
       15594.492       45.266533       12.903974       1
       15617.898       30.874512       3037390.4       1
       15641.304       40.132279       12.898737       1
       15664.710       39.841980       13.929991       1
       15688.116       32.873114       12.024865       1
       15711.522       48.767177       14.010853       1
       15734.928       46.634819       12.823505       1
       15758.334       45.122748       13.868483       1
       15781.740       47.350502       12.859567       1
       15805.146       46.653993       13.923823       1
       15828.552       45.550227       12.838794       1
       15851.958       37.714190       13.806984       1
       15875.364       52.462333       12.946304       1
       15898.770       50.853234       14.003728       1
       15922.176       47.348240       12.949323       1
       15945.583       40.020916       13.994365       1
       15968.989       47.959086       12.986174       1
       15992.395       49.669455       14.257631       1
       16015.801       50.250992       13.012310       1
       16039.207       44.909167       14.069624       1
       16062.613       52.320246       13.056797       1
       16086.019       31.877417       13.049083       1
       16109.425       41.953471       13.016173       1
       16132.831       40.845778       14.138753       1
       16156.237       48.996478       13.165813       1
       16179.643       42.052394       14.268493       1
       16203.049       33.329800       12.386235       1
       16226.455       46.126597       14.416003       1
       16249.861       29.816355       12.490215       1
       16273.267       41.359535       14.476859       1
       16296.673       33.704399       12.633789       1
       16320.079       42.400910       14.585550       1
       16343.486       45.493143       13.549782       1
       16366.892       49.457765       14.744278       1
       16390.298       35.784159       13.481461       1
       16413.704       42.692091       14.685835       1
       16437.110       40.636728       14.405124       1
       16460.516       38.821958       14.807225       1
       16483.922       43.006745       14.266065       1
       16507.328       41.132773       15.177238       1
       16530.734       43.532946       14.436329       1
       16554.140       27.236125       15.187596       1
       16577.546       47.006142       15.586537       1
       16600.952       53.947851       17.859660       1
       16624.358       34.504334       17.466580       1
       16647.764       21.020539       18.956498       1
       16671.170       56.425398       20.825402       1
       16694.576       47.910335       24.881610       1
       16717.982       53.409901       25.685523       1
       16741.388       65.699410       31.370015       1
       16764.795       51.888888       33.183726       0
       16788.201       78.003198       41.336155       0
       16811.607       77.980309       43.392788       0
       16835.013       56.177312       52.643120       0
       16858.419       92.595938       55.852897       0
       16881.825       76.372237       66.597510       0
       16905.231       115.74547       70.369204       0
       16928.637       114.55223       83.846151       0
       16952.043       123.83803       87.705132       0
       16975.449       117.95232       104.88604       0
       16998.855       150.83663       109.82878       0
       17022.261       158.27288       131.60966       0
       17045.667       71.139827       135.05353       0
       17069.073       243.32585       163.00253       0
       17092.479       295.24652       169.22344       0
       17115.885       242.03755       205.07222       0
       17139.291       142.59038       218.36926       0
       17162.698       329.48889       271.76664       0
       17186.104       246.41107       292.21799       0
       17209.510       167.29113       357.85818       0
       17232.916       353.21027       381.40953       0
       17256.322       470.29650       460.93062       0
       17279.728       419.48136       471.30896       0
       17303.134       665.42819       577.22931       0
       17326.540       274.58876       574.63536       0
       17349.946       346.64856       694.16045       0
       17373.352       322.11895       715.75947       0
       17396.758       122.03815       860.96994       0
       17420.164       987.49148       867.93305       0
       17443.570       1144.9308       1049.2284       0
       17466.976       532.37667       1077.6622       0
       17490.382      -129.05017       1317.3187       0
       17513.788       1496.1880       1617.5857       0
