#WAVELENGTH FLUX ERROR MASK
       7494.8026       3514.0925       20447.482       0
       7506.9244      -3455.5385       13627.595       0
       7519.0463      -2159.5529       14358.082       0
       7531.1681      -1554.2308       9845.9981       0
       7543.2900       6436.5468       10197.501       0
       7555.4118       5699.6766       6496.3330       0
       7567.5337       2182.1380       6424.3776       0
       7579.6555       393.06339       4082.0160       0
       7591.7773       1539.6406       4790.9800       0
       7603.8992       2359.3283       2886.4668       0
       7616.0210      -470.41742       2977.3532       0
       7628.1429       452.05406       2012.7713       0
       7640.2647       114.79937       2189.5252       0
       7652.3866       1161.3483       1512.2082       0
       7664.5084       483.76150       1585.6536       0
       7676.6302       828.19471       1068.8557       0
       7688.7521       749.27720       1099.9782       0
       7700.8739       866.18986       749.59639       0
       7712.9958       360.78281       782.97612       0
       7725.1176      -19.331694       555.48445       0
       7737.2395       159.08862       630.61186       0
       7749.3613       924.57007       464.03797       0
       7761.4831       562.71097       527.60097       0
       7773.6050       451.58465       413.00928       0
       7785.7268       643.72837       450.62290       0
       7797.8487       387.48999       328.38466       0
       7809.9705       403.66486       371.68175       0
       7822.0924       298.41566       265.49509       0
       7834.2142       342.47283       301.71960       0
       7846.3360       371.65295       215.34835       0
       7858.4579       319.85064       244.15713       0
       7870.5797       293.40575       187.51526       0
       7882.7016       405.87111       206.97807       0
       7894.8234       412.21432       154.07824       0
       7906.9453       327.49984       181.43571       0
       7919.0671       304.78755       146.08487       0
       7931.1890       208.07697       161.72535       0
       7943.3108       243.73219       140.85388       0
       7955.4326       292.16640       147.75629       0
       7967.5545       343.17954       113.64811       0
       7979.6763       281.78411       136.26331       0
       7991.7982       316.17458       105.05036       0
       8003.9200       140.63024       128.10533       0
       8016.0419       222.42088       98.225346       0
       8028.1637       127.81963       119.62774       0
       8040.2855       266.52171       92.879338       0
       8052.4074       170.12790       113.15996       0
       8064.5292       200.70829       90.151759       0
       8076.6511       285.74598       111.47377       0
       8088.7729       228.36734       86.980288       0
       8100.8948       235.47497       107.30350       0
       8113.0166       247.95368       84.329938       0
       8125.1384       154.93313       104.09123       0
       8137.2603       280.72540       81.585698       0
       8149.3821       215.63220       99.307127       0
       8161.5040       278.90023       78.963631       1
       8173.6258       265.12553       98.462968       1
       8185.7477       235.46608       75.815643       1
       8197.8695       377.81206       94.313977       1
       8209.9913       285.56313       73.333178       1
       8222.1132       248.72887       89.309145       1
       8234.2350       213.88765       69.290174       1
       8246.3569       312.95878       85.684826       1
       8258.4787       275.10061       66.313201       1
       8270.6006       257.50551       80.632136       1
       8282.7224       242.00452       63.398394       1
       8294.8442       283.61286       77.254735       1
       8306.9661       303.32336       60.948559       1
       8319.0879       260.15622       74.682214       1
       8331.2098       205.69573       60.741032       1
       8343.3316       265.83297       72.119296       1
       8355.4535       236.98220       59.004710       1
       8367.5753       264.82300       70.482179       1
       8379.6971       274.34864       55.529292       1
       8391.8190       308.07972       68.964152       1
       8403.9408       267.91357       58.493877       1
       8416.0627       308.35148       67.093450       1
       8428.1845       241.95729       52.549140       1
       8440.3064       247.46005       64.486144       1
       8452.4282       215.21102       50.689248       1
       8464.5500       210.01158       62.413346       1
       8476.6719       262.80108       49.365048       1
       8488.7937       263.08588       61.383413       1
       8500.9156       219.83556       47.952582       1
       8513.0374       235.49987       59.977475       1
       8525.1593       242.18214       47.153100       1
       8537.2811       245.75490       59.141333       1
       8549.4029       296.84731       46.971203       1
       8561.5248       196.50144       58.220511       1
       8573.6466       262.15271       46.377146       1
       8585.7685       271.67474       35049818.       1
       8597.8903       281.06134       45.956062       1
       8610.0122       253.86449       57.191922       1
       8622.1340       296.15904       55.486031       1
       8634.2558       235.15733       56.914926       1
       8646.3777       309.78254       45.614681       1
       8658.4995       294.89595       56.454662       1
       8670.6214       281.75163       44.483962       1
       8682.7432       250.92586       54.367825       1
       8694.8651       268.38227       43.288416       1
       8706.9869       222.63821       52.815572       1
       8719.1087       275.01732       41.516733       1
       8731.2306       249.42702       50.752685       1
       8743.3524       272.71345       40.308852       1
       8755.4743       206.73446       48.848475       1
       8767.5961       236.97048       44.523440       1
       8779.7180       209.52266       47.969273       1
       8791.8398       216.95504       38.078079       1
       8803.9617       258.80446       56.563683       1
       8816.0835       232.39824       37.644628       1
       8828.2053       217.82999       46.535141       1
       8840.3272       260.44344       37.049891       1
       8852.4490       236.36366       45.373475       1
       8864.5709       247.27571       38.420126       1
       8876.6927       242.69759       44.974071       1
       8888.8146       237.27657       35.554076       1
       8900.9364       228.51074       44.588948       1
       8913.0582       268.33805       35.328887       1
       8925.1801       259.84297       43.744309       1
       8937.3019       225.18914       34.313415       1
       8949.4238       223.41285       43.428417       1
       8961.5456       265.37406       34.164257       1
       8973.6675       292.32105       42.518137       1
       8985.7893       293.55702       33.695114       1
       8997.9111       254.94385       41.331938       1
       9010.0330       196.63588       37.579889       1
       9022.1548       212.39917       40.515952       1
       9034.2767       260.13747       32.749894       1
       9046.3985       252.61193       40.775532       1
       9058.5204       227.34066       32.287245       1
       9070.6422       284.95800       40.659478       1
       9082.7640       244.67795       32.099587       1
       9094.8859       195.87700       39.612437       1
       9107.0077       289.95986       31.801487       1
       9119.1296       255.54746       50.061194       1
       9131.2514       284.65703       31.150325       1
       9143.3733       257.18745       38.955431       1
       9155.4951       250.74474       30.296004       1
       9167.6169       240.56456       37.469343       1
       9179.7388       279.50615       30.077950       1
       9191.8606       264.61729       37.020997       1
       9203.9825       277.62880       29.463259       1
       9216.1043       208.83986       36.736426       1
       9228.2262       235.62578       28.656372       1
       9240.3480       233.72436       35.648965       1
       9252.4698       226.77772       28.220555       1
       9264.5917       229.87453       35.204394       1
       9276.7135       231.42539       28.036492       1
       9288.8354       240.09829       34.956272       1
       9300.9572       210.75831       30.693002       1
       9313.0791       193.36984       34.829904       1
       9325.2009       254.11643       27.502728       1
       9337.3227       236.09414       34.420854       1
       9349.4446       254.44437       27.344312       1
       9361.5664       227.18969       34.060775       1
       9373.6883       243.28880       27.109693       1
       9385.8101       216.89475       33.530967       1
       9397.9320       259.39113       30.752454       1
       9410.0538       222.83680       33.142658       1
       9422.1756       252.93018       26.587922       1
       9434.2975       235.43561       32.887894       1
       9446.4193       247.80994       26.128298       1
       9458.5412       235.56798       32.704290       1
       9470.6630       241.70256       29.727333       1
       9482.7849       240.03963       32.202453       1
       9494.9067       239.98143       25.599380       1
       9507.0285       246.20735       31.860108       1
       9519.1504       224.77710       26.679660       1
       9531.2722       236.41781       31.638010       1
       9543.3941       236.43336       25.061528       1
       9555.5159       212.55817       30.908307       1
       9567.6378       223.04780       24.777748       1
       9579.7596       248.89942       30.981852       1
       9591.8814       232.91132       24.571123       1
       9604.0033       237.77181       30.552887       1
       9616.1251       232.11177       26.433513       1
       9628.2470       236.64161       30.724661       1
       9640.3688       239.83206       24.227737       1
       9652.4907       228.77149       38.579249       1
       9664.6125       229.19285       23.976669       1
       9676.7343       230.10396       29.805064       1
       9688.8562       242.85482       23.873458       1
       9700.9780       225.22720       29.375743       1
       9713.0999       234.02641       23.545204       1
       9725.2217       230.25988       29.685195       1
       9737.3436       222.49850       23.340571       1
       9749.4654       231.35001       29.119460       1
       9761.5873       244.88271       23.341531       1
       9773.7091       225.70333       28.888685       1
       9785.8309       228.96059       22.927049       1
       9797.9528       229.73619       29.053951       1
       9810.0746       228.83323       22.970657       1
       9822.1965       246.15969       28.927337       1
       9834.3183       231.27523       23.981859       1
       9846.4402       243.20740       28.560234       1
       9858.5620       226.79488       22.723374       1
       9870.6838       233.31637       28.357366       1
       9882.8057       241.30345       22.732026       1
       9894.9275       223.41500       28.208447       1
       9907.0494       233.32063       22.568332       1
       9919.1712       205.07110       27.884506       1
       9931.2931       225.35620       22.403349       1
       9943.4149       240.27643       28.030014       1
       9955.5367       233.00266       22.245975       1
       9967.6586       220.21335       27.938954       1
       9979.7804       221.59695       21.882269       1
       9991.9023       224.57682       27.112436       1
       10004.024       222.30094       21.669344       1
       10016.146       210.54900       26.755243       1
       10028.268       208.69825       21.393179       1
       10040.390       222.83596       26.736794       1
       10052.511       214.84234       21.335110       1
       10064.633       262.21441       26.937356       1
       10076.755       225.56285       21.413364       1
       10088.877       212.27345       26.988459       1
       10100.999       237.33438       21.442442       1
       10113.121       222.00605       26.390736       1
       10125.243       230.75053       21.228603       1
       10137.364       227.17810       26.356293       1
       10149.486       214.71341       20.953574       1
       10161.608       221.23899       26.124234       1
       10173.730       218.21444       20.846998       1
       10185.852       230.37710       26.108346       1
       10197.974       215.81353       20.774210       1
       10210.095       236.95866       26.101948       1
       10222.217       208.58371       20.735013       1
       10234.339       243.19963       25.778258       1
       10246.461       237.94850       20.503519       1
       10258.583       201.99414       25.799054       1
       10270.705       236.01832       20.329307       1
       10282.827       246.03343       25.800213       1
       10294.948       253.14076       20.288831       1
       10307.070       266.29945       25.285046       1
       10319.192       249.01370       20.061957       1
       10331.314       232.56222       24.891424       1
       10343.436       235.65277       19.963192       1
       10355.558       233.00370       24.871326       1
       10367.679       198.88101       19.644341       1
       10379.801       200.66739       24.323881       1
       10391.923       205.57519       19.654183       1
       10404.045       217.30574       24.704535       1
       10416.167       223.23460       19.586586       1
       10428.289       232.93124       24.917709       1
       10440.410       255.42653       21.065175       1
       10452.532       240.73124       24.740147       1
       10464.654       209.79385       19.492111       1
       10476.776       205.99248       24.294985       1
       10488.898       246.57598       19.742799       1
       10501.020       256.60750       24.890471       1
       10513.142       290.50467       20.075220       1
       10525.263       301.50816       25.444858       1
       10537.385       334.21373       20.373976       1
       10549.507       300.81040       25.126148       1
       10561.629       284.25993       19.996950       1
       10573.751       275.06879       25.390825       1
       10585.873       288.31585       20.003552       1
       10597.994       315.74135       25.354820       1
       10610.116       359.52689       20.399641       1
       10622.238       322.95286       25.112074       1
       10634.360       289.79941       21.298984       1
       10646.482       261.81499       24.182190       1
       10658.604       245.93985       20.835334       1
       10670.725       223.92138       23.736388       1
       10682.847       207.78862       18.885666       1
       10694.969       200.78903       23.442044       1
       10707.091       209.04344       18.881160       1
       10719.213       211.73654       23.645687       1
       10731.335       192.76652       18.706985       1
       10743.457       191.61987       23.522168       1
       10755.578       199.70154       18.728952       1
       10767.700       177.74986       23.549059       1
       10779.822       200.69013       18.767191       1
       10791.944       198.14439       27.174712       1
       10804.066       210.11730       18.778596       1
       10816.188       185.92121       23.640816       1
       10828.309       199.00229       18.824014       1
       10840.431       226.02093       23.534388       1
       10852.553       203.27200       18.545558       1
       10864.675       157.10956       23.000282       1
       10876.797       177.41466       18.253338       1
       10888.919       184.69129       22.655125       1
       10901.040       199.46283       18.289093       1
       10913.162       178.93222       23.178007       1
       10925.284       202.93455       18.331537       1
       10937.406       173.08718       22.935795       1
       10949.528       191.33810       20.634432       1
       10961.650       190.93366       23.209296       1
       10973.772       186.90967       18.380585       1
       10985.893       198.72721       22.827392       1
       10998.015       178.14744       17.992620       1
       11010.137       189.07103       22.657384       1
       11022.259       194.27031       18.039084       1
       11034.381       193.03237       26.106394       1
       11046.503       170.69722       17.883066       1
       11058.624       208.05148       22.615084       1
       11070.746       185.53980       17.942249       1
       11082.868       175.63517       22.908393       1
       11094.990       195.21862       18.255659       1
       11107.112       166.40860       22.687636       1
       11119.234       190.03508       18.087742       1
       11131.356       166.76082       25.848380       1
       11143.477       186.25851       18.028705       1
       11155.599       197.54669       26.899467       1
       11167.721       193.55798       18.016607       1
       11179.843       196.48555       22.648311       1
       11191.965       207.46784       18.248955       1
       11204.087       199.75896       26.244540       0
       11216.208       196.01083       18.052682       0
       11228.330       182.14471       22.475975       0
       11240.452       196.03282       18.120057       0
       11252.574       186.70364       22.582614       0
       11264.696       175.78094       17.869432       0
       11276.818       160.05888       22.185353       0
       11288.939       176.69061       17.903092       0
       11301.061       190.47028       22.500752       0
       11313.183       170.90183       17.915949       0
       11325.305       172.01705       23.000532       0
       11337.427       157.42880       18.440579       0
       11349.549       179.37317       24.107541       0
       11361.671       172.87137       20.032251       0
       11373.792       176.11344       26.515428       0
       11385.914       175.82423       22.911524       0
       11398.036       176.67599       31.548040       0
       11410.158       201.82206       27.905672       0
       11422.280       198.59549       39.374237       0
       11434.402       196.14526       35.126136       0
       11446.523       227.82387       50.989853       0
       11458.645       226.11901       45.155524       0
       11470.767       248.49482       64.200003       0
       11482.889       300.27238       56.825781       0
       11495.011       276.12006       78.172707       0
       11507.133       376.47193       69.842453       0
       11519.254       384.90735       96.280765       0
       11531.376       354.10985       87.569517       0
       11543.498       326.86389       124.91636       0
       11555.620       386.48449       118.82435       0
       11567.742       421.46538       178.61788       0
       11579.864       543.60127       190.31379       0
       11591.986       682.38432       277.10068       0
       11604.107       831.74141       271.45311       0
       11616.229       1059.3609       410.74402       0
       11628.351       1221.5795       407.62892       0
       11640.473       1125.9303       613.24669       0
       11652.595       1753.0658       597.54189       0
       11664.717       587.15719       931.22273       0
       11676.838       2792.8103       967.55979       0
       11688.960       1652.3272       2008.8332       0
       11701.082       4315.9142       1633.0728       0
       11713.204       5360.8616       3162.3288       0
       11725.326       4643.2397       2785.8848       0
       11737.448       3578.9123       4028.0870       0
       11749.570       8936.8177       3413.0428       0
       11761.691       6103.2189       5066.7239       0
       11773.813       3261.1313       3341.5371       0
       11785.935       9363.9592       4098.2542       0
       11798.057       5855.7539       3203.3724       0
       11810.179       9256.0240       4266.8484       0
       11822.301       7631.6912       4510.3172       0
       11834.422       16109.841       5294.6819       0
       11846.544       3953.3890       4884.4119       0
