#WAVELENGTH FLUX ERROR MASK
       7484.8595      -3161.2968       31599.997       0
       7496.6161       642.31680       18250.592       0
       7508.3726      -4020.9249       19148.481       0
       7520.1292       3812.8169       13182.306       0
       7531.8857       3789.3024       14020.179       0
       7543.6422      -14335.179       8919.3646       0
       7555.3988      -9610.1432       9104.0009       0
       7567.1553       2286.6820       5937.4060       0
       7578.9119      -1225.2445       5792.0894       0
       7590.6684      -2544.2021       3850.0883       0
       7602.4250       1657.2761       3991.9258       0
       7614.1815       1248.4394       2771.3746       0
       7625.9381       1016.6790       2963.1594       0
       7637.6946       889.88201       2053.2235       0
       7649.4512      -365.29516       2210.3885       0
       7661.2077      -641.65719       1516.6878       0
       7672.9643       817.37487       1595.9310       0
       7684.7208      -196.23125       1064.2081       0
       7696.4774       305.60232       1108.2056       0
       7708.2339      -1678.0954       744.14389       0
       7719.9904      -186.61241       810.44385       0
       7731.7470      -60.418694       602.25680       0
       7743.5035       170.44077       662.90358       0
       7755.2601      -578.49933       493.54961       0
       7767.0166       220.09323       569.29625       0
       7778.7732      -515.33352       426.27915       0
       7790.5297       192.43408       492.44325       0
       7802.2863      -507.18494       353.03215       0
       7814.0428      -189.20158       399.66424       0
       7825.7994       251.88553       292.13671       0
       7837.5559       485.08309       331.25817       0
       7849.3125      -24.068351       236.13156       0
       7861.0690       189.16966       267.14809       0
       7872.8255       91.668058       197.50437       0
       7884.5821       268.31253       230.71900       0
       7896.3386       18.359954       171.65844       0
       7908.0952       176.13339       199.21009       0
       7919.8517      -46.173962       152.89860       0
       7931.6083       147.02928       182.40825       0
       7943.3648      -44.499813       137.23807       0
       7955.1214       93.297010       165.57106       0
       7966.8779      -68.544895       126.46017       0
       7978.6345       60.622097       152.61126       0
       7990.3910       151.70712       119.81447       0
       8002.1476       39.546829       143.27885       0
       8013.9041       32.837616       111.74005       0
       8025.6607       18.904611       134.31508       0
       8037.4172       136.86861       106.12660       0
       8049.1737       210.03482       130.41704       0
       8060.9303       11.521744       100.69311       0
       8072.6868       200.20926       125.71398       0
       8084.4434       206.72939       100.67379       0
       8096.1999       120.23171       147.75505       0
       8107.9565       144.13143       96.025229       0
       8119.7130       107.31009       142.17437       0
       8131.4696       132.43293       93.155914       0
       8143.2261       126.61948       111.56878       0
       8154.9827       133.71805       90.011770       1
       8166.7392       206.33864       110.27517       1
       8178.4958       37.619964       85.970025       1
       8190.2523       62.243009       103.71785       1
       8202.0088       138.30175       83.739059       1
       8213.7654       127.46948       101.37314       1
       8225.5219       81.354492       79.659742       1
       8237.2785       53.313660       96.544561       1
       8249.0350       33.047848       83.965267       1
       8260.7916       21.378682       91.322786       1
       8272.5481       161.35933       72.794913       1
       8284.3047       91.976848       87.383175       1
       8296.0612       165.24069       69.894288       1
       8307.8178       162.60814       85.325545       1
       8319.5743       153.01310       67.133607       1
       8331.3309       165.97449       82.241524       1
       8343.0874       180.46805       65.317802       1
       8354.8440       90.939830       76.984265       1
       8366.6005       158.44966       63.567042       1
       8378.3570       133.82911       77.601021       1
       8390.1136       81.658992       61.390883       1
       8401.8701       81.737006       75.263743       1
       8413.6267       49.809154       59.703111       1
       8425.3832       85.862898       73.266169       1
       8437.1398       147.55687       58.390483       1
       8448.8963       191.27739       71.954241       1
       8460.6529       113.47882       56.662985       1
       8472.4094       249.27819       70.315922       1
       8484.1660       101.69253       54.831315       1
       8495.9225       220.56800       68.106976       1
       8507.6791       112.73414       53.659997       1
       8519.4356       87.864886       65.188681       1
       8531.1922       162.14171       53.337604       1
       8542.9487       126.89850       65.002806       1
       8554.7052       161.54944       52.368631       1
       8566.4618       158.51128       64.529257       1
       8578.2183       171.38714       52.000286       1
       8589.9749       96.321149       62.455834       1
       8601.7314       148.74171       51.538126       1
       8613.4880       219.51586       64.369040       1
       8625.2445       160.31429       51.365487       1
       8637.0011       160.05717       63.555784       1
       8648.7576       147.85501       49.719501       1
       8660.5142       33.803732       61.693040       1
       8672.2707       120.36718       48.669120       1
       8684.0273       96.515270       59.218564       1
       8695.7838       121.45603       47.736407       1
       8707.5403       195.59054       59.058608       1
       8719.2969       131.26647       46.218139       1
       8731.0534       164.42001       56.519465       1
       8742.8100       129.58785       44.738389       1
       8754.5665       142.75901       54.828250       1
       8766.3231       163.12200       43.909774       1
       8778.0796       154.98218       53.760843       1
       8789.8362       167.83050       43.338600       1
       8801.5927       167.48224       52.864780       1
       8813.3493       129.64997       41.999953       1
       8825.1058       200.63641       52.217957       1
       8836.8624       159.77854       41.560166       1
       8848.6189       177.65245       50.758005       1
       8860.3755       124.24897       40.335049       1
       8872.1320       172.58556       49.936065       1
       8883.8885       138.35114       39.706583       1
       8895.6451       134.46774       48.816914       1
       8907.4016       109.29380       38.893195       1
       8919.1582       167.70308       48.348174       1
       8930.9147       134.60625       38.414340       1
       8942.6713       137.51557       58.195245       1
       8954.4278       120.53333       37.864398       1
       8966.1844       256.95653       58.531491       1
       8977.9409       170.77790       37.303290       1
       8989.6975       191.86865       46.025080       1
       9001.4540       137.58353       36.580037       1
       9013.2106       161.47347       45.268015       1
       9024.9671       147.19953       36.430460       1
       9036.7236       104.20397       44.228633       1
       9048.4802       141.27680       35.946617       1
       9060.2367       126.81581       44.336246       1
       9071.9933       133.19603       35.566764       1
       9083.7498       115.35934       43.655560       1
       9095.5064       128.99570       34.923949       1
       9107.2629       125.49670       42.848902       1
       9119.0195       155.60591       34.502413       1
       9130.7760       166.53231       42.019728       1
       9142.5326       157.66325       33.890739       1
       9154.2891       125.71916       41.346872       1
       9166.0457       106.15735       37.299929       1
       9177.8022       152.38917       39.775237       1
       9189.5588       110.62498       31.828290       1
       9201.3153       102.92166       39.488896       1
       9213.0718       148.44695       31.971025       1
       9224.8284       109.63072       38.880887       1
       9236.5849       144.49993       31.604504       1
       9248.3415       147.55759       38.756630       1
       9260.0980       150.06970       31.239961       1
       9271.8546       157.14147       38.585859       1
       9283.6111       168.64569       31.146295       1
       9295.3677       163.27182       38.220314       1
       9307.1242       142.52110       30.537410       1
       9318.8808       175.03918       38.043784       1
       9330.6373       137.98324       30.159988       1
       9342.3939       144.70080       37.336181       1
       9354.1504       169.49847       30.195961       1
       9365.9070       166.89794       37.352562       1
       9377.6635       159.06390       29.903967       1
       9389.4200       94.227596       36.237857       1
       9401.1766       133.64387       29.229090       1
       9412.9331       103.90117       35.756484       1
       9424.6897       162.86568       29.137341       1
       9436.4462       148.37146       35.439574       1
       9448.2028       156.36972       28.697019       1
       9459.9593       110.43903       34.967224       1
       9471.7159       143.93003       28.403256       1
       9483.4724       148.21688       34.968132       1
       9495.2290       126.84220       27.923816       1
       9506.9855       194.57804       35.102897       1
       9518.7421       150.31178       27.774134       1
       9530.4986       132.84452       34.188924       1
       9542.2551       129.51140       27.490719       1
       9554.0117       178.76354       34.346651       1
       9565.7682       135.75854       27.258527       1
       9577.5248       168.93646       33.857069       1
       9589.2813       228.14564       38.579478       1
       9601.0379       152.14333       33.453903       1
       9612.7944       154.17767       26.928487       1
       9624.5510       157.52175       33.028125       1
       9636.3075       137.77504       30.225966       1
       9648.0641       135.01586       32.552449       1
       9659.8206       146.17904       26.336132       1
       9671.5772       129.24281       32.433266       1
       9683.3337       154.93608       26.132884       1
       9695.0903       147.55831       31.879977       1
       9706.8468       180.96098       26.321902       1
       9718.6033       161.55814       32.168978       1
       9730.3599       169.59699       25.979359       1
       9742.1164       140.15354       31.759132       1
       9753.8730       152.95095       25.640575       1
       9765.6295       112.10570       31.235963       1
       9777.3861       147.13870       25.307585       1
       9789.1426       133.15299       31.152765       1
       9800.8992       121.22734       25.003450       1
       9812.6557       90.896268       30.551896       1
       9824.4123       110.72927       24.855500       1
       9836.1688       85.035358       29.508779       1
       9847.9254       150.47192       25.001555       1
       9859.6819       139.39136       30.665622       1
       9871.4384       153.60106       24.887690       1
       9883.1950       93.820065       30.155871       1
       9894.9515       170.11092       24.966807       1
       9906.7081       168.29062       30.810012       1
       9918.4646       147.26560       24.684048       1
       9930.2212       152.21281       30.506722       1
       9941.9777       159.28438       24.560839       1
       9953.7343       172.06525       30.494289       1
       9965.4908       152.05519       24.222031       1
       9977.2474       192.68375       30.334291       1
       9989.0039       139.34463       23.823898       1
       10000.760       181.32024       29.797611       1
       10012.517       123.29863       23.419061       1
       10024.274       155.87102       29.067553       1
       10036.030       124.59798       23.328195       1
       10047.787       125.83212       28.777495       1
       10059.543       150.08553       23.453262       1
       10071.300       121.10994       28.813880       1
       10083.056       134.75456       23.314307       1
       10094.813       117.65781       28.596985       1
       10106.569       144.77206       23.473247       1
       10118.326       146.83265       28.676820       1
       10130.082       152.20129       23.331347       1
       10141.839       126.58205       28.329169       1
       10153.596       137.98721       23.052366       1
       10165.352       129.89307       28.289101       1
       10177.109       142.50481       22.817851       1
       10188.865       160.35376       28.347295       1
       10200.622       118.15511       22.621205       1
       10212.378       82.756223       19.438757       1
       10224.135       133.00848       22.492296       1
       10235.891       118.32020       27.343336       1
       10247.648       138.15998       22.240323       1
       10259.404       132.47575       27.281429       1
       10271.161       155.40484       22.162396       1
       10282.918       182.73910       27.478316       1
       10294.674       149.65576       21.955924       1
       10306.431       142.05018       26.922577       1
       10318.187       151.30965       24.702561       1
       10329.944       96.281276       26.392979       1
       10341.700       121.52034       21.484440       1
       10353.457       123.95395       26.500811       1
       10365.213       108.26179       21.362545       1
       10376.970       122.36643       26.478131       1
       10388.726       147.31549       21.535843       1
       10400.483       106.45887       26.375791       1
       10412.240       117.99530       21.285304       1
       10423.996       136.50149       26.414254       1
       10435.753       113.41476       21.233975       1
       10447.509       160.47909       26.486042       1
       10459.266       140.92244       21.278032       1
       10471.022       68.484182       25.334179       1
       10482.779       118.92169       21.107767       1
       10494.535       130.17154       26.142523       1
       10506.292       150.14208       21.324630       1
       10518.049       141.65971       26.359660       1
       10529.805       126.16531       21.168555       1
       10541.562       174.83706       26.661677       1
       10553.318       134.35102       21.279231       1
       10565.075       148.14569       26.425644       1
       10576.831       137.96002       21.222415       1
       10588.588       153.22593       26.201790       1
       10600.344       133.66232       21.068354       1
       10612.101       151.84631       25.967938       1
       10623.857       109.08121       20.670843       1
       10635.614       135.99327       25.695127       1
       10647.371       125.83739       20.496502       1
       10659.127       114.28395       25.331717       1
       10670.884       133.73247       20.506404       1
       10682.640       117.94307       25.162505       1
       10694.397       152.38235       27.961601       1
       10706.153       123.70022       25.028731       1
       10717.910       122.93559       20.219266       1
       10729.666       148.21729       25.363699       1
       10741.423       152.71195       20.503218       1
       10753.179       130.95444       25.084770       1
       10764.936       128.68790       20.213086       1
       10776.693       116.23497       24.772584       1
       10788.449       130.49274       20.161476       1
       10800.206       129.55023       24.965149       1
       10811.962       132.78616       20.293595       1
       10823.719       143.18875       24.977487       1
       10835.475       119.57920       20.035660       1
       10847.232       187.36755       25.239631       1
       10858.988       118.13496       19.913930       1
       10870.745       150.93537       24.716437       1
       10882.501       140.40480       19.996551       1
       10894.258       141.95115       30.215620       1
       10906.015       128.70952       19.795323       1
       10917.771       66.272305       16.979899       1
       10929.528       129.48243       19.868088       1
       10941.284       142.34217       24.475491       1
       10953.041       146.72791       19.967274       1
       10964.797       99.680058       23.886788       1
       10976.554       135.65532       19.884788       1
       10988.310       145.36606       24.506344       1
       11000.067       127.19691       19.774560       1
       11011.823       135.20356       24.340146       1
       11023.580       143.97429       19.881148       1
       11035.337       104.68380       23.951078       1
       11047.093       148.59785       19.692607       1
       11058.850       135.17280       24.336959       1
       11070.606       126.40240       19.700516       1
       11082.363       145.92160       24.434544       1
       11094.119       130.03205       21.902668       1
       11105.876       137.68948       24.290619       1
       11117.632       120.54142       19.611502       1
       11129.389       140.57843       24.300894       1
       11141.145       132.70038       19.685890       1
       11152.902       135.09511       24.315638       1
       11164.659       147.13983       19.773987       1
       11176.415       147.69388       24.466417       1
       11188.172       123.91392       19.619335       1
       11199.928       109.14951       23.955028       1
       11211.685       122.75788       19.514816       0
       11223.441       149.59676       24.335130       0
       11235.198       153.19610       19.723639       0
       11246.954       114.19193       24.038456       0
       11258.711       137.00529       19.695288       0
       11270.467       122.61899       24.051099       0
       11282.224       136.26649       19.554884       0
       11293.981       172.29313       24.446598       0
       11305.737       132.34746       19.637998       0
       11317.494       140.41055       24.431062       0
       11329.250       135.61353       19.935890       0
       11341.007       138.34876       24.929148       0
       11352.763       115.33647       20.700010       0
       11364.520       131.19394       26.604675       0
       11376.276       140.81227       22.866019       0
       11388.033       90.583046       29.107089       0
       11399.789       123.99421       26.316844       0
       11411.546       126.90372       35.582631       0
       11423.303       120.30389       32.053970       0
       11435.059       100.58610       44.067460       0
       11446.816       115.58324       40.502725       0
       11458.572       157.33114       56.742160       0
       11470.329       89.379829       51.294911       0
       11482.085       182.93121       71.593749       0
       11493.842       130.25371       63.626274       0
       11505.598       140.72502       86.258100       0
       11517.355       110.03524       76.435049       0
       11529.112       27.937546       103.46749       0
       11540.868       80.823734       95.990224       0
       11552.625       200.17811       138.50251       0
       11564.381       44.416047       131.24536       0
       11576.138       51.049840       191.23851       0
       11587.894      -129.92293       189.79315       0
       11599.651      -17.658826       284.69522       0
       11611.407       121.47619       288.92556       0
       11623.164       555.52912       433.28111       0
       11634.920      -161.05126       426.75115       0
       11646.677       1054.0092       637.92089       0
       11658.434      -570.24028       606.59238       0
       11670.190      -563.62199       989.61566       0
       11681.947      -279.88786       966.84479       0
       11693.703       1262.6132       1516.7334       0
       11705.460       1916.8119       1633.4631       0
