#WAVELENGTH FLUX ERROR MASK
       10193.668      -1238.6429       3364.4573       0
       10216.029      -1296.9248       2751.3779       0
       10238.390      -2199.3938       2575.4736       0
       10260.750      -1982.7768       2037.3001       0
       10283.111      -1456.5450       1920.3139       0
       10305.471      -69.354918       1562.1175       0
       10327.832       166.77449       1516.4643       0
       10350.192      -237.56198       1260.1465       0
       10372.553       196.37058       1256.8711       0
       10394.913      -93.034615       1054.2301       0
       10417.274      -226.45265       1047.5670       0
       10439.635      -377.09870       848.57839       0
       10461.995      -325.13744       800.77916       0
       10484.356      -581.65920       619.92140       0
       10506.716      -168.72183       575.98754       0
       10529.077      -41.435236       452.35875       0
       10551.437       163.88091       428.74220       0
       10573.798      -304.38876       341.23423       0
       10596.158       162.04045       336.35613       0
       10618.519      -126.87596       275.71317       0
       10640.880      -60.293519       271.27813       0
       10663.240       2.2696018       224.55302       0
       10685.601      -151.59187       212.04056       0
       10707.961       115.25929       171.04278       0
       10730.322       62.624521       156.02153       0
       10752.682       130.93978       120.86620       0
       10775.043       43.637404       110.25032       0
       10797.403       67.379422       85.998412       0
       10819.764       45.096127       80.513315       0
       10842.124       14.313945       64.536106       0
       10864.485      -21.826908       62.922336       0
       10886.846       10.710072       52.438396       0
       10909.206       42.885350       53.741341       0
       10931.567       33.221853       45.650388       0
       10953.927       14.496457       46.670449       0
       10976.288       34.232156       39.981499       0
       10998.648       31.059035       41.095902       0
       11021.009       24.925302       34.788429       1
       11043.369       68.687231       36.217307       1
       11065.730       48.144839       31.008839       1
       11088.091       46.143959       32.366303       1
       11110.451       47.102541       28.280685       1
       11132.812       28.190151       29.743271       1
       11155.172       29.107422       26.311142       1
       11177.533       31.565308       28.419245       1
       11199.893       36.601381       25.451763       1
       11222.254       64.771275       28.029652       1
       11244.614       34.875108       24.921145       1
       11266.975       59.943602       27.449116       1
       11289.336       37.565766       24.510648       1
       11311.696       38.639115       24.566711       1
       11334.057       48.461608       24.155621       1
       11356.417       46.692346       26.194594       1
       11378.778       42.026732       23.605608       1
       11401.138       38.792227       25.493264       1
       11423.499       47.523092       23.324522       1
       11445.859       49.547619       25.182354       1
       11468.220       50.063411       23.005901       1
       11490.580       50.949998       25.049105       1
       11512.941       55.284875       22.887819       1
       11535.302       54.751391       24.907910       1
       11557.662       31.310919       22.478587       1
       11580.023       41.152152       24.650179       1
       11602.383       44.442658       22.434381       1
       11624.744       49.617986       24.536784       1
       11647.104       35.729215       21.977293       1
       11669.465       38.997114       21.940552       1
       11691.825       46.057502       21.510032       1
       11714.186       48.287167       22.979234       1
       11736.547       50.875312       21.276829       1
       11758.907       42.632013       22.411446       1
       11781.268       37.418708       20.671977       1
       11803.628       48.244627       22.025497       1
       11825.989       47.167248       20.350145       1
       11848.349       49.254730       21.639108       1
       11870.710       50.981631       20.022582       1
       11893.070       47.867233       21.335784       1
       11915.431       46.217108       19.713317       1
       11937.791       39.171113       20.923712       1
       11960.152       45.631786       19.432630       1
       11982.513       51.004955       20.661227       1
       12004.873       44.920865       19.318349       1
       12027.234       42.305275       20.365373       1
       12049.594       49.554468       18.979483       1
       12071.955       26.843845       19.878610       1
       12094.315       50.759007       18.747609       1
       12116.676       47.190035       19.914018       1
       12139.036       41.576604       18.412747       1
       12161.397       46.480584       19.714929       1
       12183.758       42.468816       18.193218       1
       12206.118       50.819069       19.545888       1
       12228.479       44.388099       18.050596       1
       12250.839       38.168772       19.136934       1
       12273.200       48.092352       17.883410       1
       12295.560       47.134060       19.028622       1
       12317.921       54.700452       17.754204       1
       12340.281       45.503897       18.913107       1
       12362.642       48.121234       17.570985       1
       12385.003       42.468065       18.641724       1
       12407.363       50.610822       17.403932       1
       12429.724       53.126349       18.618900       1
       12452.084       41.189226       17.169735       1
       12474.445       56.592923       18.509957       1
       12496.805       42.638260       17.167109       1
       12519.166       41.540265       18.251694       1
       12541.526       47.904084       17.411955       1
       12563.887       51.685592       18.217849       1
       12586.247       50.242595       16.956864       1
       12608.608       43.091412       18.097040       1
       12630.969       47.127644       16.818551       1
       12653.329       38.776277       17.894981       1
       12675.690       44.612759       16.701279       1
       12698.050       44.648633       17.964195       1
       12720.411       48.807866       16.531889       1
       12742.771       50.669851       17.845001       1
       12765.132       57.158083       16.394862       1
       12787.492       50.848180       17.623954       1
       12809.853       51.348934       16.069847       1
       12832.214       55.220431       4088293.3       1
       12854.574       47.314903       15.961785       1
       12876.935       51.484865       17.357474       1
       12899.295       53.879296       15.968094       1
       12921.656       57.500266       17.266844       1
       12944.016       58.036852       15.832195       1
       12966.377       40.194104       16.003906       1
       12988.737       46.439600       3960535.0       1
       13011.098       49.625559       16.775706       1
       13033.459       42.410531       14.226358       1
       13055.819       39.984862       16.484681       1
       13078.180       44.261042       14.270381       1
       13100.540       53.735350       16.479868       1
       13122.901       47.463211       15.101734       1
       13145.261       38.663522       16.119825       1
       13167.622       49.207586       15.005515       1
       13189.982       52.753112       16.210800       1
       13212.343       46.814736       14.823230       1
       13234.703       42.497893       15.908616       1
       13257.064       55.190551       14.655893       1
       13279.425       50.448163       15.881376       1
       13301.785       48.914195       14.437002       1
       13324.146       39.504682       15.717319       1
       13346.506       42.146510       14.477243       1
       13368.867       50.660474       15.784843       1
       13391.227       54.701932       14.543120       1
       13413.588       49.456809       15.601848       1
       13435.948       50.574849       14.228277       1
       13458.309       45.657749       15.440104       1
       13480.670       38.424881       13.002489       1
       13503.030       46.625623       15.282729       1
       13525.391       42.393790       13.249894       1
       13547.751       56.088998       15.366815       1
       13570.112       45.879007       14.005112       1
       13592.472       41.717511       14.391588       1
       13614.833       54.852252       14.113895       1
       13637.193       52.286772       15.180972       1
       13659.554       62.838018       14.404741       1
       13681.914       72.370597       15.486491       1
       13704.275       71.186769       14.561815       1
       13726.636       73.712321       15.516551       1
       13748.996       90.942485       14.508679       1
       13771.357       78.476247       15.616092       1
       13793.717       74.240183       14.299912       1
       13816.078       78.149958       15.616537       1
       13838.438       72.843895       14.299126       1
       13860.799       54.238789       15.259637       1
       13883.159       56.192990       14.073773       1
       13905.520       45.128520       15.043671       1
       13927.881       54.609330       3536494.0       1
       13950.241       60.195457       15.206168       1
       13972.602       50.497741       13.907121       1
       13994.962       56.591114       15.072120       1
       14017.323       48.044801       13.719606       1
       14039.683       53.482039       14.909464       1
       14062.044       40.684831       13.482989       1
       14084.404       57.920079       14.766420       1
       14106.765       48.945521       13.471490       1
       14129.126       55.311076       14.667112       1
       14151.486       45.385820       13.437761       1
       14173.847       46.380328       14.482336       1
       14196.207       50.291450       13.405182       1
       14218.568       46.163636       14.493109       1
       14240.928       50.647178       13.337620       1
       14263.289       52.151748       14.292629       1
       14285.649       53.538193       13.263182       1
       14308.010       51.382424       14.259534       1
       14330.370       51.093289       13.104990       1
       14352.731       40.003326       14.053399       1
       14375.092       44.384226       13.489245       1
       14397.452       55.683964       14.153390       1
       14419.813       46.033400       13.000189       1
       14442.173       40.673111       14.051170       1
       14464.534       44.407046       12.971213       1
       14486.894       43.293742       13.989043       1
       14509.255       42.821744       12.953495       1
       14531.615       36.991675       13.937284       1
       14553.976       54.331326       13.055509       1
       14576.337       37.752310       13.900746       1
       14598.697       47.540078       12.991736       1
       14621.058       47.634907       14.021485       1
       14643.418       55.109012       13.034021       1
       14665.779       41.897536       13.820848       1
       14688.139       49.335011       13.010607       1
       14710.500       52.394005       13.943475       1
       14732.860       42.474150       12.946162       1
       14755.221       45.097835       13.919671       1
       14777.582       45.218785       12.949346       1
       14799.942       41.315348       13.906408       1
       14822.303       47.562980       12.986367       1
       14844.663       51.615917       13.991281       1
       14867.024       41.987652       12.892939       1
       14889.384       43.396777       13.797113       1
       14911.745       34.545727       12.724417       1
       14934.105       39.275279       13.605743       1
       14956.466       44.116043       12.760046       1
       14978.826       40.317801       13.543518       1
       15001.187       47.016442       12.686503       1
       15023.548       42.949520       13.568118       1
       15045.908       51.400543       12.752591       1
       15068.269       42.001695       13.509588       1
       15090.629       42.390980       12.591437       1
       15112.990       36.965758       13.442632       1
       15135.350       43.754722       11.820780       1
       15157.711       47.158778       13.475819       1
       15180.071       29.191939       11.516319       1
       15202.432       43.911105       13.419230       1
       15224.793       41.999297       12.459286       1
       15247.153       42.477056       13.286446       1
       15269.514       48.302356       12.574904       1
       15291.874       41.962378       13.363858       1
       15314.235       40.118683       12.466940       1
       15336.595       46.264239       13.441412       1
       15358.956       37.217343       12.434357       1
       15381.316       31.332846       13.288750       1
       15403.677       36.700917       12.371413       1
       15426.037       46.415517       13.498308       1
       15448.398       39.126565       11.711435       1
       15470.759       43.493782       13.429440       1
       15493.119       36.477905       11.755798       1
       15515.480       39.235467       13.465476       1
       15537.840       51.068877       12.670074       1
       15560.201       41.249889       13.413454       1
       15582.561       49.138243       12.691592       1
       15604.922       43.765537       13.452574       1
       15627.282       42.190202       12.533128       1
       15649.643       43.018260       13.738245       1
       15672.004       40.037662       12.483294       1
       15694.364       42.631573       13.617309       1
       15716.725       40.878865       12.382665       1
       15739.085       44.809987       13.612600       1
       15761.446       40.267813       12.296024       1
       15783.806       42.583948       13.466023       1
       15806.167       49.176515       12.446501       1
       15828.527       54.821294       13.650728       1
       15850.888       46.890747       12.347737       1
       15873.249       45.046098       13.572197       1
       15895.609       47.272052       12.433019       1
       15917.970       39.625358       13.595334       1
       15940.330       34.178482       12.329994       1
       15962.691       45.752494       13.686222       1
       15985.051       36.862718       12.321296       1
       16007.412       44.854240       13.641571       1
       16029.772       41.791183       12.488014       1
       16052.133       32.845822       13.467700       1
       16074.493       45.393021       12.501897       1
       16096.854       34.106400       13.536284       1
       16119.215       44.673762       12.515874       1
       16141.575       33.629075       12.591344       1
       16163.936       45.888590       12.555571       1
       16186.296       49.021121       13.838695       1
       16208.657       44.621205       12.641012       1
       16231.017       28.178799       12.618313       1
       16253.378       33.598402       12.632071       1
       16275.738       47.776908       13.984635       1
       16298.099       39.507828       12.761180       1
       16320.460       39.280872       14.046004       1
       16342.820       53.641689       12.958769       1
       16365.181       36.724385       14.003154       1
       16387.541       44.928094       12.893019       1
       16409.902       37.544202       14.064876       1
       16432.262       38.247266       12.853221       1
       16454.623       31.850939       14.134380       1
       16476.983       46.524829       13.095486       1
       16499.344       36.690189       14.338055       1
       16521.705       45.165564       13.448278       1
       16544.065       26.528242       14.835271       1
       16566.426       32.771403       14.064825       1
       16588.786       40.533508       16.024745       1
       16611.147       47.054483       15.618247       1
       16633.507       37.737945       17.707192       1
       16655.868       47.695333       17.756742       1
       16678.228       31.032002       20.579068       1
       16700.589       47.412352       21.173095       1
       16722.949       29.305810       24.857118       1
       16745.310       58.844828       26.220039       1
       16767.671       46.608433       31.884155       0
       16790.031       39.340284       33.293126       0
       16812.392       35.512970       40.749106       0
       16834.752       35.159119       42.760574       0
       16857.113       62.206924       52.505236       0
       16879.473       50.248813       53.955863       0
       16901.834       12.882616       61.084266       0
       16924.194       51.915533       66.915362       0
       16946.555       1.3792598       79.714906       0
       16968.916      0.78225577       82.094217       0
       16991.276      -55.810594       98.030964       0
       17013.637     -0.80867111       102.02027       0
       17035.997      -7.5587273       122.21259       0
       17058.358       41.563534       125.24612       0
       17080.718      -12.296734       149.35358       0
       17103.079      -30.628109       152.54258       0
       17125.439       54.699021       186.58118       0
       17147.800      -103.92426       51650711.       0
