#WAVELENGTH FLUX ERROR MASK
       7484.8595      -559.27362       25428.972       0
       7496.6161      -9830.3138       17962.238       0
       7508.3726      -5160.6075       18959.817       0
       7520.1292       7722.1788       13149.319       0
       7531.8857      -7360.2238       13855.218       0
       7543.6422      -5236.4208       9195.9968       0
       7555.3988      -1947.2207       9207.7459       0
       7567.1553       3127.1035       5942.3550       0
       7578.9119      -8670.1941       5697.9498       0
       7590.6684      -2461.5729       3828.3612       0
       7602.4250      -967.50554       4015.7538       0
       7614.1815       1586.6752       2779.4484       0
       7625.9381      -589.44574       2950.1795       0
       7637.6946      -608.78323       2058.3784       0
       7649.4512       1695.7046       2227.3523       0
       7661.2077      -474.59397       1527.2967       0
       7672.9643      -691.73497       1567.3258       0
       7684.7208       72.050143       1082.1352       0
       7696.4774      -820.75160       1091.6497       0
       7708.2339      -464.66042       771.98632       0
       7719.9904      -318.18092       808.03081       0
       7731.7470      -309.05974       598.39414       0
       7743.5035       390.31122       669.59742       0
       7755.2601      -105.46677       495.99028       0
       7767.0166      -194.91907       563.82272       0
       7778.7732      -234.95103       427.64265       0
       7790.5297      -60.478723       488.83511       0
       7802.2863      -210.31433       355.24326       0
       7814.0428       125.36143       396.49603       0
       7825.7994       97.129114       293.13116       0
       7837.5559       15.893356       318.99479       0
       7849.3125      -27.646612       237.94932       0
       7861.0690       17.339511       266.43756       0
       7872.8255       130.84903       199.08177       0
       7884.5821      -18.879831       225.95672       0
       7896.3386       41.938649       171.93111       0
       7908.0952       147.20528       199.20852       0
       7919.8517       60.674902       153.49102       0
       7931.6083       179.04199       181.33428       0
       7943.3648       8.7305546       144.00548       0
       7955.1214       22.801000       165.28940       0
       7966.8779       16.596870       126.15337       0
       7978.6345       156.13707       154.27757       0
       7990.3910      -49.279334       117.33017       0
       8002.1476       154.86018       143.83890       0
       8013.9041      -5.5154247       110.64973       0
       8025.6607       139.96317       135.67457       0
       8037.4172       46.325084       105.73575       0
       8049.1737      -13.381709       128.36530       0
       8060.9303       44.491320       102.12521       0
       8072.6868       88.307524       107.94122       0
       8084.4434       70.750337       99.342257       0
       8096.1999       105.12110       134.97744       0
       8107.9565       190.33395       96.999181       0
       8119.7130       147.79777       117.23877       0
       8131.4696       93.013939       92.061756       0
       8143.2261       85.259478       124.79089       0
       8154.9827       33.762701       88.013983       1
       8166.7392      -4.7210406       107.57944       1
       8178.4958       107.17984       86.385815       1
       8190.2523      -3.5011224       104.41606       1
       8202.0088       46.965442       83.001969       1
       8213.7654       58.929259       113.03723       1
       8225.5219       82.277052       79.931844       1
       8237.2785       93.746408       107.98946       1
       8249.0350       139.33364       76.451403       1
       8260.7916       63.533616       103.79523       1
       8272.5481       90.667977       71.761365       1
       8284.3047       113.86739       86.827738       1
       8296.0612       117.81130       69.308977       1
       8307.8178       134.99007       84.769677       1
       8319.5743       162.47258       71.082860       1
       8331.3309       109.74965       80.756068       1
       8343.0874       99.778263       64.732741       1
       8354.8440       177.47686       79.945008       1
       8366.6005       115.09924       63.142430       1
       8378.3570       129.79024       77.726704       1
       8390.1136       99.491935       61.593798       1
       8401.8701       104.97419       75.572920       1
       8413.6267       90.582117       59.779913       1
       8425.3832       109.24793       73.138911       1
       8437.1398       139.02701       61.534339       1
       8448.8963       98.838261       71.111107       1
       8460.6529       101.14271       57.473944       1
       8472.4094       104.63446       68.857192       1
       8484.1660       40.684139       55.262613       1
       8495.9225       103.13794       67.073268       1
       8507.6791       134.38549       64.163402       1
       8519.4356       148.61782       66.371576       1
       8531.1922       119.23663       51.584652       1
       8542.9487       139.54576       65.082003       1
       8554.7052       122.04683       52.082938       1
       8566.4618       100.15227       63.855431       1
       8578.2183       122.66238       51.599719       1
       8589.9749       130.09890       63.707975       1
       8601.7314       105.40643       51.043227       1
       8613.4880       128.65580       63.493219       1
       8625.2445       86.953475       50.460043       1
       8637.0011       133.02379       63.188941       1
       8648.7576       112.36638       50.105175       1
       8660.5142       74.803714       61.603074       1
       8672.2707       66.750811       48.517709       1
       8684.0273       106.05755       60.107948       1
       8695.7838       65.161053       47.435915       1
       8707.5403       54.702560       57.309075       1
       8719.2969       139.46216       46.296450       1
       8731.0534       89.897924       55.898128       1
       8742.8100       142.87940       44.782952       1
       8754.5665       98.910854       54.463086       1
       8766.3231       105.77706       43.525052       1
       8778.0796       145.51438       53.381134       1
       8789.8362       95.246706       42.603214       1
       8801.5927       71.933099       51.389287       1
       8813.3493       157.06188       42.610063       1
       8825.1058       114.76210       45.153876       1
       8836.8624       128.37294       41.353003       1
       8848.6189       74.789807       49.718142       1
       8860.3755       105.77646       40.226609       1
       8872.1320       143.75286       49.665098       1
       8883.8885       128.18517       39.758946       1
       8895.6451       93.008785       41.770913       1
       8907.4016       96.554802       38.826233       1
       8919.1582       89.971590       47.548200       1
       8930.9147       118.59080       38.348471       1
       8942.6713       103.76935       52.560483       1
       8954.4278       124.21916       37.658251       1
       8966.1844       128.53125       51.686345       1
       8977.9409       128.55130       37.126531       1
       8989.6975       120.39939       45.267304       1
       9001.4540       114.64831       36.322106       1
       9013.2106       96.580691       44.528076       1
       9024.9671       112.09762       36.610677       1
       9036.7236       144.34855       44.791002       1
       9048.4802       118.46891       36.425545       1
       9060.2367       132.79138       44.406895       1
       9071.9933       117.96970       37.437074       1
       9083.7498       96.107576       43.058991       1
       9095.5064       103.85500       34.780113       1
       9107.2629       117.01335       42.383091       1
       9119.0195       134.26997       34.412768       1
       9130.7760       90.709480       41.460367       1
       9142.5326       105.60453       33.441529       1
       9154.2891       87.766007       40.807003       1
       9166.0457       99.873223       32.724942       1
       9177.8022       61.125623       39.524852       1
       9189.5588       111.22342       32.282500       1
       9201.3153       129.82349       39.717895       1
       9213.0718       109.87769       31.712466       1
       9224.8284       100.65241       38.887157       1
       9236.5849       112.56372       31.402820       1
       9248.3415       105.88941       38.500756       1
       9260.0980       97.366954       30.659872       1
       9271.8546       88.936430       37.833421       1
       9283.6111       93.433880       30.360177       1
       9295.3677       117.09783       37.782534       1
       9307.1242       110.33312       30.263003       1
       9318.8808       104.65036       37.341783       1
       9330.6373       98.140449       29.888324       1
       9342.3939       130.39138       37.287434       1
       9354.1504       113.99480       29.776165       1
       9365.9070       128.74469       36.756025       1
       9377.6635       103.70322       29.433151       1
       9389.4200       120.63979       36.412059       1
       9401.1766       106.24247       29.116527       1
       9412.9331       120.18541       35.887676       1
       9424.6897       111.10071       28.756275       1
       9436.4462       74.509789       35.127402       1
       9448.2028       120.49864       28.291904       1
       9459.9593       78.640322       34.477473       1
       9471.7159       108.10627       28.025175       1
       9483.4724       88.194900       34.452745       1
       9495.2290       118.09469       27.862691       1
       9506.9855       108.77874       34.367111       1
       9518.7421       100.06933       27.489173       1
       9530.4986       120.68860       34.120018       1
       9542.2551       108.01402       27.247034       1
       9554.0117       112.93271       33.672814       1
       9565.7682       99.838652       26.883502       1
       9577.5248       71.585866       29.098377       1
       9589.2813       121.97089       26.840465       1
       9601.0379       85.623655       32.817255       1
       9612.7944       107.62501       28.331915       1
       9624.5510       106.54009       32.610067       1
       9636.3075       112.99693       28.276787       1
       9648.0641       125.97662       32.450745       1
       9659.8206       113.50547       28.081948       1
       9671.5772       115.38835       32.233247       1
       9683.3337       108.57498       25.949417       1
       9695.0903       117.75535       31.881776       1
       9706.8468       114.34834       25.805247       1
       9718.6033       109.73846       31.588448       1
       9730.3599       86.704120       25.253329       1
       9742.1164       133.50088       31.551976       1
       9753.8730       103.34523       25.191592       1
       9765.6295       100.60831       31.042154       1
       9777.3861       128.37125       25.123328       1
       9789.1426       116.34089       31.050023       1
       9800.8992       88.326744       24.750016       1
       9812.6557       101.22436       30.689951       1
       9824.4123       100.70153       24.800639       1
       9836.1688       100.20229       30.583624       1
       9847.9254       131.21989       24.891117       1
       9859.6819       133.25870       30.702269       1
       9871.4384       109.65233       24.603738       1
       9883.1950       95.309372       30.173582       1
       9894.9515       110.72910       24.441375       1
       9906.7081       99.739336       30.113735       1
       9918.4646       110.69351       24.364804       1
       9930.2212       113.15555       30.068233       1
       9941.9777       99.449630       24.166066       1
       9953.7343       87.479099       29.628649       1
       9965.4908       94.007496       23.679929       1
       9977.2474       131.04467       30.346381       1
       9989.0039       118.44762       23.727989       1
       10000.760       98.946965       29.700387       1
       10012.517       115.25322       23.356119       1
       10024.274       113.79696       29.087087       1
       10036.030       97.221273       23.127861       1
       10047.787       100.42057       28.510644       1
       10059.543       111.03803       27.879371       1
       10071.300       84.935130       28.442175       1
       10083.056       124.30013       23.186002       1
       10094.813       99.305384       28.332653       1
       10106.569       119.93873       23.176885       1
       10118.326       116.62427       28.286822       1
       10130.082       128.11957       23.071066       1
       10141.839       93.199526       28.138838       1
       10153.596       107.50983       22.683368       1
       10165.352       102.98474       27.918288       1
       10177.109       129.20002       22.745316       1
       10188.865       97.792676       27.763082       1
       10200.622       95.371065       22.301751       1
       10212.378       82.192300       27.331156       1
       10224.135       119.22213       22.438908       1
       10235.891       109.44715       27.234944       1
       10247.648       102.98047       22.019978       1
       10259.404       109.26337       27.121221       1
       10271.161       91.283025       21.724343       1
       10282.918       102.77256       26.753923       1
       10294.674       111.48541       23.091164       1
       10306.431       128.06037       26.745689       1
       10318.187       133.36042       23.176238       1
       10329.944       109.99489       10917676.       1
       10341.700       112.04416       21.360123       1
       10353.457       102.71764       26.312828       1
       10365.213       111.60259       22.778943       1
       10376.970       111.71545       26.322176       1
       10388.726       109.82968       22.606661       1
       10400.483       99.863831       26.241852       1
       10412.240       105.60625       21.209179       1
       10423.996       111.17969       26.095574       1
       10435.753       98.318710       21.037718       1
       10447.509       117.44099       26.170837       1
       10459.266       110.61744       21.063349       1
       10471.022       108.04323       25.765694       1
       10482.779       91.382856       22.395768       1
       10494.535       111.74344       25.951557       1
       10506.292       123.14138       21.166323       1
       10518.049       118.95684       26.162985       1
       10529.805       106.96279       21.038933       1
       10541.562       114.35567       26.158510       1
       10553.318       130.25180       21.208393       1
       10565.075       97.176144       22.791000       1
       10576.831       129.67400       21.193264       1
       10588.588       114.26783       25.927256       1
       10600.344       104.40911       20.883607       1
       10612.101       130.06037       25.844989       1
       10623.857       119.23831       20.787530       1
       10635.614       102.10798       25.325080       1
       10647.371       99.255649       20.305556       1
       10659.127       120.08840       25.356271       1
       10670.884       105.36421       20.244215       1
       10682.640       117.95569       25.053559       1
       10694.397       121.66482       20.345048       1
       10706.153       102.91436       24.896974       1
       10717.910       96.260245       20.095371       1
       10729.666       126.77376       25.091198       1
       10741.423       112.41895       20.145335       1
       10753.179       107.92008       24.848842       1
       10764.936       108.84409       20.161549       1
       10776.693       118.71660       24.859575       1
       10788.449       117.32518       20.121651       1
       10800.206       104.28657       24.764722       1
       10811.962       124.88904       20.221548       1
       10823.719       105.82653       24.546042       1
       10835.475       129.41363       20.124464       1
       10847.232       93.084435       24.373841       1
       10858.988       104.04884       19.782977       1
       10870.745       107.60187       24.423969       1
       10882.501       88.047115       19.596784       1
       10894.258       121.17066       24.439505       1
       10906.015       115.36272       19.713274       1
       10917.771       102.26722       24.090779       1
       10929.528       89.529892       19.498444       1
       10941.284       45.696913       20.744193       1
       10953.041       103.47461       20.759965       1
       10964.797       125.73572       24.229626       1
       10976.554       113.57159       19.689774       1
       10988.310       120.07271       24.348412       1
       11000.067       112.62534       19.606968       1
       11011.823       95.374261       23.996240       1
       11023.580       109.47938       20.019281       1
       11035.337       99.659489       23.871621       1
       11047.093       105.34324       19.797735       1
       11058.850       113.04047       24.118451       1
       11070.606       89.962297       19.346117       1
       11082.363       104.12797       24.017181       1
       11094.119       120.96820       19.533804       1
       11105.876       98.808512       23.966007       1
       11117.632       112.64751       19.484941       1
       11129.389       122.49311       24.035013       1
       11141.145       101.91550       19.424251       1
       11152.902       86.379842       21.100948       1
       11164.659       111.95548       19.501707       1
       11176.415       113.78349       24.142131       1
       11188.172       102.44787       23.240528       1
       11199.928       104.91138       23.972755       1
       11211.685       108.68979       19.424362       0
       11223.441       111.20463       24.078409       0
       11235.198       117.87813       19.450920       0
       11246.954       110.40395       23.959933       0
       11258.711       94.236445       19.338563       0
       11270.467       119.21870       24.089669       0
       11282.224       116.67177       19.440719       0
       11293.981       118.78536       24.069838       0
       11305.737       114.73909       19.440020       0
       11317.494       109.31643       24.083188       0
       11329.250       101.62281       19.647127       0
       11341.007       123.93417       24.869621       0
       11352.763       101.48093       20.551016       0
       11364.520       110.63847       26.427921       0
       11376.276       100.13120       22.529258       0
       11388.033       95.088595       29.653305       0
       11399.789       118.53829       26.274345       0
       11411.546       132.29743       35.640144       0
       11423.303       97.869585       31.877541       0
       11435.059       45.538216       43.003839       0
       11446.816       109.27834       40.448210       0
       11458.572       92.384680       56.196328       0
       11470.329       106.10770       51.261789       0
       11482.085       58.776869       69.009895       0
       11493.842       80.225363       62.935133       0
       11505.598       56.601563       84.544344       0
       11517.355       160.68780       77.545530       0
       11529.112       94.286427       104.09506       0
       11540.868       111.76003       97.211089       0
       11552.625       89.366782       135.47853       0
       11564.381      -86.836118       128.01822       0
       11576.138      -7.6069102       189.59163       0
       11587.894       60.841258       190.43771       0
       11599.651      -25.559190       287.30954       0
       11611.407      -65.862081       288.15577       0
       11623.164      -81.333481       429.46261       0
       11634.920      -6.8938831       428.04216       0
       11646.677       235.20557       631.77215       0
       11658.434       613.34654       620.02525       0
       11670.190       1584.8767       940.81568       0
       11681.947      -720.38150       961.51468       0
       11693.703       301.05728       1506.7992       0
       11705.460      -1095.4639       1581.8369       0
