#WAVELENGTH FLUX ERROR MASK
       10193.668      -2941.2997       3415.0890       0
       10216.029      -872.83577       2724.3995       0
       10238.390      -3460.2463       2608.1339       0
       10260.750      -2051.1104       2021.7347       0
       10283.111      -439.55262       1975.0264       0
       10305.471       124.24785       1555.3671       0
       10327.832      -529.28042       1538.3199       0
       10350.192      -977.63314       1236.7094       0
       10372.553      -761.99345       1270.5269       0
       10394.913      -401.90821       1044.0671       0
       10417.274      -656.73144       1060.2360       0
       10439.635      -61.971930       849.41799       0
       10461.995      -559.61144       810.31298       0
       10484.356       55.471412       625.51152       0
       10506.716      -344.03863       585.03495       0
       10529.077      -91.859005       447.65234       0
       10551.437      0.15747255       433.63512       0
       10573.798      -212.54821       339.12354       0
       10596.158       377.77974       341.84611       0
       10618.519      -44.934624       272.41244       0
       10640.880       170.39298       278.56822       0
       10663.240       194.85616       224.05145       0
       10685.601       30.495322       218.40024       0
       10707.961       149.38347       168.83208       0
       10730.322       105.97190       159.31873       0
       10752.682       184.54376       121.13272       0
       10775.043       109.10064       109.46200       0
       10797.403       53.018662       85.048334       0
       10819.764       128.05513       80.567000       0
       10842.124       118.51094       64.972952       0
       10864.485       217.69441       65.146929       0
       10886.846       157.15033       54.123845       0
       10909.206       121.41380       54.060606       0
       10931.567       160.83377       46.897097       0
       10953.927       65.295028       46.877875       0
       10976.288       138.48819       41.204980       0
       10998.648       154.76138       42.061296       0
       11021.009       148.90866       36.314136       1
       11043.369       152.36161       37.015711       1
       11065.730       127.19437       31.884635       1
       11088.091       112.95994       32.764146       1
       11110.451       144.67182       29.234744       1
       11132.812       89.040987       30.239728       1
       11155.172       105.88738       27.277095       1
       11177.533       115.82747       29.177470       1
       11199.893       143.85278       26.887972       1
       11222.254       112.13166       28.363352       1
       11244.614       130.21709       26.028862       1
       11266.975       137.26644       28.063654       1
       11289.336       144.33713       25.791670       1
       11311.696       141.48989       27.649440       1
       11334.057       112.70892       24.959387       1
       11356.417       133.45503       26.891024       1
       11378.778       136.35558       24.746199       1
       11401.138       199.80282       27.172030       1
       11423.499       142.71556       24.347068       1
       11445.859       134.98155       26.301940       1
       11468.220       164.85882       24.338675       1
       11490.580       137.84487       25.941205       1
       11512.941       161.10522       24.097899       1
       11535.302       139.36605       25.789402       1
       11557.662       187.61251       24.194620       1
       11580.023       177.62718       26.046068       1
       11602.383       130.95991       23.380776       1
       11624.744       149.13540       25.363099       1
       11647.104       131.76481       23.026934       1
       11669.465       135.42610       24.718760       1
       11691.825       141.65653       22.676493       1
       11714.186       159.25659       24.305442       1
       11736.547       152.49367       22.244006       1
       11758.907       154.34405       23.836127       1
       11781.268       136.54354       21.629295       1
       11803.628       121.43435       22.940596       1
       11825.989       129.43397       21.200836       1
       11848.349       143.65067       22.583413       1
       11870.710       133.38270       20.920169       1
       11893.070       96.055512       21.854178       1
       11915.431       112.47628       20.483361       1
       11937.791       142.79180       22.231248       1
       11960.152       133.46784       20.420714       1
       11982.513       135.34687       21.767685       1
       12004.873       164.26693       20.387538       1
       12027.234       129.02021       21.582951       1
       12049.594       156.03032       20.098869       1
       12071.955       150.53310       21.597831       1
       12094.315       135.47634       19.674834       1
       12116.676       139.43220       21.223963       1
       12139.036       138.74175       19.431024       1
       12161.397       119.28605       20.785419       1
       12183.758       136.06184       19.194778       1
       12206.118       146.28068       20.807000       1
       12228.479       117.14368       18.880589       1
       12250.839       132.24736       20.397948       1
       12273.200       149.54179       19.006892       1
       12295.560       117.98258       20.198989       1
       12317.921       124.29936       18.519760       1
       12340.281       99.724200       19.788584       1
       12362.642       139.84014       18.544324       1
       12385.003       156.23027       8925083.1       1
       12407.363       135.60083       18.345043       1
       12429.724       116.06476       19.613130       1
       12452.084       115.86930       18.001360       1
       12474.445       137.27144       19.670911       1
       12496.805       116.30065       17.954596       1
       12519.166       113.89859       19.275405       1
       12541.526       120.38638       17.801054       1
       12563.887       136.37892       19.299081       1
       12586.247       119.95905       17.606369       1
       12608.608       152.59787       19.522739       1
       12630.969       124.84845       17.626599       1
       12653.329       103.89290       18.570664       1
       12675.690       123.99975       17.537769       1
       12698.050       134.92001       18.302445       1
       12720.411       121.09738       17.378887       1
       12742.771       134.09567       18.338848       1
       12765.132       137.62781       17.324497       1
       12787.492       146.16873       18.262394       1
       12809.853       124.26783       16.818303       1
       12832.214       120.30201       17.783573       1
       12854.574       146.46719       17.069901       1
       12876.935       97.473199       17.597079       1
       12899.295       127.83782       16.860151       1
       12921.656       133.83432       17.836937       1
       12944.016       127.83651       16.780064       1
       12966.377       125.69737       17.543262       1
       12988.737       114.52993       16.312016       1
       13011.098       117.05154       17.200179       1
       13033.459       104.27049       15.926465       1
       13055.819       101.47311       16.886854       1
       13078.180       122.98616       16.215346       1
       13100.540       125.49834       17.025327       1
       13122.901       113.69851       16.018003       1
       13145.261       135.02805       17.053015       1
       13167.622       132.26915       15.977712       1
       13189.982       119.82920       16.676235       1
       13212.343       110.40242       15.627449       1
       13234.703       131.46436       16.633556       1
       13257.064       111.03373       15.472285       1
       13279.425       132.22250       16.495850       1
       13301.785       130.71972       15.612308       1
       13324.146       130.23227       16.409696       1
       13346.506       122.21860       15.530653       1
       13368.867       119.35921       16.191505       1
       13391.227       117.83654       15.356441       1
       13413.588       139.11902       16.250762       1
       13435.948       124.25431       15.246319       1
       13458.309       121.03375       15.971018       1
       13480.670       121.29164       5880021.7       1
       13503.030       114.70212       15.784586       1
       13525.391       145.80240       15.217293       1
       13547.751       126.81980       15.805039       1
       13570.112       115.43583       14.913454       1
       13592.472       123.24586       15.715332       1
       13614.833       135.96423       15.094421       1
       13637.193       129.46525       15.768295       1
       13659.554       144.69996       15.059290       1
       13681.914       209.54525       16.632251       1
       13704.275       253.53371       16.276895       1
       13726.636       402.24927       18.339010       1
       13748.996       481.91540       18.400265       1
       13771.357       517.66701       19.591161       1
       13793.717       366.54600       17.298516       1
       13816.078       383.33735       18.363125       1
       13838.438       280.19284       16.453469       1
       13860.799       225.84706       16.688147       1
       13883.159       181.80185       15.498995       1
       13905.520       151.02588       15.963876       1
       13927.881       142.16695       15.088217       1
       13950.241       129.30183       15.693558       1
       13972.602       120.29568       14.788690       1
       13994.962       137.17333       15.649485       1
       14017.323       118.11651       14.646538       1
       14039.683       122.08960       15.283445       1
       14062.044       113.48124       14.413809       1
       14084.404       142.35250       15.323682       1
       14106.765       122.27466       14.378295       1
       14129.126       127.03695       15.123260       1
       14151.486       122.53220       14.409869       1
       14173.847       145.84885       15.257245       1
       14196.207       98.787142       14.081774       1
       14218.568       128.25308       14.934529       1
       14240.928       132.58480       14.192553       1
       14263.289       112.85322       14.798334       1
       14285.649       109.63552       13.912894       1
       14308.010       118.05264       14.735013       1
       14330.370       117.09917       13.921516       1
       14352.731       120.79058       14.655786       1
       14375.092       103.13544       13.766905       1
       14397.452       123.66372       14.668932       1
       14419.813       98.672349       13.658663       1
       14442.173       93.506106       14.409839       1
       14464.534       108.89747       13.785193       1
       14486.894       109.61890       14.468384       1
       14509.255       111.13937       13.738073       1
       14531.615       121.48712       14.626298       1
       14553.976       102.89037       13.696685       1
       14576.337       123.27784       14.680918       1
       14598.697       115.85188       13.852302       1
       14621.058       120.11002       14.637809       1
       14643.418       109.28307       13.742789       1
       14665.779       116.33464       14.880682       1
       14688.139       124.45032       13.883744       1
       14710.500       113.95974       14.750900       1
       14732.860       151.76022       14.090674       1
       14755.221       110.79030       14.813725       1
       14777.582       118.10171       13.820029       1
       14799.942       80.535799       14.533033       1
       14822.303       116.28029       13.817032       1
       14844.663       125.08904       14.976921       1
       14867.024       105.85165       13.537406       1
       14889.384       117.65879       14.826477       1
       14911.745       109.35327       13.587805       1
       14934.105       127.11625       14.742778       1
       14956.466       131.39371       13.663905       1
       14978.826       111.24427       14.520833       1
       15001.187       106.45479       13.347808       1
       15023.548       98.237273       14.343645       1
       15045.908       101.85534       13.241751       1
       15068.269       90.811500       14.249978       1
       15090.629       120.27665       13.418331       1
       15112.990       118.36339       14.465924       1
       15135.350       116.76619       13.439969       1
       15157.711       101.83377       14.288176       1
       15180.071       116.17644       13.280941       1
       15202.432       118.49957       14.490815       1
       15224.793       119.35473       13.202667       1
       15247.153       117.31497       14.315542       1
       15269.514       111.81099       13.238619       1
       15291.874       104.96509       14.156237       1
       15314.235       117.27938       13.321768       1
       15336.595       119.41927       14.481618       1
       15358.956       115.62778       13.324445       1
       15381.316       135.55684       14.588173       1
       15403.677       117.16785       13.320823       1
       15426.037       95.274961       14.180178       1
       15448.398       118.78110       13.383308       1
       15470.759       101.63022       14.334602       1
       15493.119       103.95163       13.255033       1
       15515.480       107.32818       14.366395       1
       15537.840       103.86306       13.245404       1
       15560.201       118.53311       14.516424       1
       15582.561       118.77445       13.449169       1
       15604.922       102.24902       14.205359       1
       15627.282       97.464377       13.158535       1
       15649.643       99.944633       14.225975       1
       15672.004       131.12727       13.451473       1
       15694.364       102.06979       14.157867       1
       15716.725       116.26078       13.233672       1
       15739.085       92.969096       13.937757       1
       15761.446       124.81483       13.336562       1
       15783.806       110.44596       14.144252       1
       15806.167       112.81114       13.217229       1
       15828.527       104.14079       14.116824       1
       15850.888       107.23706       13.086335       1
       15873.249       104.56433       14.173058       1
       15895.609       125.22029       13.378400       1
       15917.970       118.12346       14.886149       1
       15940.330       113.32958       13.285884       1
       15962.691       128.89006       14.583602       1
       15985.051       106.90153       13.224469       1
       16007.412       95.705345       14.186336       1
       16029.772       107.42526       13.209795       1
       16052.133       122.20637       14.392465       1
       16074.493       110.71271       13.118423       1
       16096.854       107.80482       14.346544       1
       16119.215       110.73060       13.273829       1
       16141.575       126.40673       14.533291       1
       16163.936       111.39411       13.289753       1
       16186.296       100.18498       14.365874       1
       16208.657       97.056684       13.259791       1
       16231.017       108.34868       14.461339       1
       16253.378       87.283549       13.271834       1
       16275.738       94.394183       14.425947       1
       16298.099       86.484361       13.308032       1
       16320.460       87.281640       14.468925       1
       16342.820       119.31709       15.764761       1
       16365.181       94.626089       14.596372       1
       16387.541       122.25520       13.787664       1
       16409.902       114.54550       14.858380       1
       16432.262       87.605818       13.501691       1
       16454.623       105.07933       14.727884       1
       16476.983       92.223663       13.609199       1
       16499.344       115.02196       14.968895       1
       16521.705       101.13312       14.137046       1
       16544.065       98.983051       15.493574       1
       16566.426       102.70344       14.940228       1
       16588.786       96.861876       16.618227       1
       16611.147       100.76273       16.077949       1
       16633.507       107.76535       18.965866       1
       16655.868       102.94042       18.272390       1
       16678.228       122.58090       22.081332       1
       16700.589       93.192104       21.619029       1
       16722.949       92.759579       25.941626       1
       16745.310       52.136292       21.850702       1
       16767.671       92.252366       33.102589       0
       16790.031       115.13872       33.970809       0
       16812.392       67.246271       42.051782       0
       16834.752       78.969244       43.128501       0
       16857.113       88.940205       53.954899       0
       16879.473       43.995829       53.797338       0
       16901.834       101.33459       67.245411       0
       16924.194       47.831726       67.184453       0
       16946.555       74.599504       82.520919       0
       16968.916       86.381875       82.779308       0
       16991.276       64.109750       101.82079       0
       17013.637      -13.524545       101.30068       0
       17035.997       48.508430       125.92478       0
       17058.358      -36.267258       124.50889       0
       17080.718       104.67024       154.11840       0
       17103.079      -10.400359       152.27873       0
       17125.439       78.252772       190.63152       0
       17147.800      -114.75565       193.54429       0
