#WAVELENGTH FLUX ERROR MASK
       10208.958      -520.06165       2575.7130       0
       10232.363      -997.20682       2403.6647       0
       10255.767      -608.94892       1943.6405       0
       10279.172      -1366.4205       1756.1836       0
       10302.577      -164.97331       1526.9460       0
       10325.982       355.17958       1364.9503       0
       10349.386       908.30542       1230.0635       0
       10372.791      -149.60130       1118.5195       0
       10396.196      -173.82197       1010.5991       0
       10419.600       256.78552       926.30464       0
       10443.005       131.70918       806.31715       0
       10466.410      -241.57335       690.96594       0
       10489.814       272.49380       551.55157       0
       10513.219      -101.81731       490.58722       0
       10536.624      -111.91368       412.25265       0
       10560.028      -49.865008       360.14549       0
       10583.433      -124.31016       313.36681       0
       10606.838      -21.355430       282.86986       0
       10630.243       147.36994       254.10706       0
       10653.647       149.06279       230.50333       0
       10677.052       54.361309       200.55654       0
       10700.457       62.572423       173.93799       0
       10723.861       37.877523       130.48230       0
       10747.266       41.395687       115.03648       0
       10770.671       50.828688       100.22378       0
       10794.075       92.395715       84.879033       0
       10817.480       41.731910       71.757991       0
       10840.885       16.437496       62.390444       0
       10864.290       20.812548       56.390677       0
       10887.694       46.258461       51.126272       0
       10911.099       14.995409       47.185386       0
       10934.504       51.225940       44.127574       0
       10957.908       71.818251       41.172287       0
       10981.313       72.242088       39.268353       0
       11004.718       55.431770       35.595406       1
       11028.122       72.263740       33.519550       1
       11051.527       48.876549       30.883004       1
       11074.932       50.999505       29.424933       1
       11098.336       68.060536       27.976679       1
       11121.741       65.151526       27.192506       1
       11145.146       29.814400       26.120673       1
       11168.551       46.946632       25.473567       1
       11191.955       23.505442       22.889855       1
       11215.360       63.332477       24.970544       1
       11238.765       79.805982       24.607601       1
       11262.169       68.013978       24.428628       1
       11285.574       47.755348       21.879344       1
       11308.979       72.817879       24.083776       1
       11332.383       55.022250       23.734675       1
       11355.788       42.019906       23.155576       1
       11379.193       61.146362       21.494225       1
       11402.598       58.337909       22.910795       1
       11426.002       52.942194       22.481998       1
       11449.407       49.776865       20.780616       1
       11472.812       40.926689       22.147000       1
       11496.216       48.550911       22.222261       1
       11519.621       49.601223       22.001646       1
       11543.026       57.317963       22.236476       1
       11566.430       74.238099       22.011740       1
       11589.835       62.751628       22.008027       1
       11613.240       50.265187       21.838855       1
       11636.644       67.502671       21.795663       1
       11660.049       70.610075       21.417584       1
       11683.454       50.898647       21.139307       1
       11706.859       55.702775       20.728736       1
       11730.263       54.882589       20.622311       1
       11753.668       61.056808       20.281757       1
       11777.073       56.054181       20.260200       1
       11800.477       56.214916       19.847548       1
       11823.882       57.944291       19.831314       1
       11847.287       60.787788       19.554790       1
       11870.691       55.103266       19.379990       1
       11894.096       56.274536       19.085262       1
       11917.501       52.345182       17.360864       1
       11940.905       55.355794       18.884375       1
       11964.310       61.340054       18.950351       1
       11987.715       58.228165       18.936608       1
       12011.120       60.690538       18.670414       1
       12034.524       61.486588       18.692768       1
       12057.929       55.635307       18.345302       1
       12081.334       60.324689       18.169081       1
       12104.738       60.470207       18.182322       1
       12128.143       47.635315       16.681900       1
       12151.548       66.084521       18.056794       1
       12174.952       60.284278       17.739574       1
       12198.357       57.460918       17.724388       1
       12221.762       62.165390       17.509072       1
       12245.167       59.983820       17.554907       1
       12268.571       56.028352       17.259220       1
       12291.976       80.792232       17.663347       1
       12315.381       50.388922       17.038677       1
       12338.785       65.944628       17.257764       1
       12362.190       72.064096       17.101257       1
       12385.595       58.813355       17.023992       1
       12408.999       62.541856       16.894528       1
       12432.404       44.789342       16.720302       1
       12455.809       55.179999       16.666830       1
       12479.213       51.979385       16.701993       1
       12502.618       53.587792       16.718017       1
       12526.023       65.392049       16.684549       1
       12549.428       67.269871       16.565057       1
       12572.832       62.991256       16.570535       1
       12596.237       61.468920       16.396552       1
       12619.642       59.883314       16.447366       1
       12643.046       59.071646       16.349258       1
       12666.451       55.301837       16.333831       1
       12689.856       59.875752       16.701930       1
       12713.260       48.117214       16.080094       1
       12736.665       58.398172       16.708530       1
       12760.070       52.927978       15.886989       1
       12783.475       58.345369       15.687794       1
       12806.879       65.248212       15.869120       1
       12830.284       56.042524       15.566994       1
       12853.689       56.400454       15.643100       1
       12877.093       54.929996       15.445631       1
       12900.498       63.460821       15.554227       1
       12923.903       56.417537       15.579611       1
       12947.307       54.455246       15.408614       1
       12970.712       64.238802       15.235186       1
       12994.117       63.443116       15.257251       1
       13017.521       46.106660       14.726479       1
       13040.926       61.379402       15.055076       1
       13064.331       52.187438       15.015763       1
       13087.736       63.115550       14.909580       1
       13111.140       56.150761       14.699412       1
       13134.545       55.459587       14.804120       1
       13157.950       59.236537       14.595322       1
       13181.354       57.836673       14.628358       1
       13204.759       57.796467       14.342646       1
       13228.164       65.469627       14.525002       1
       13251.568       58.651310       14.222435       1
       13274.973       79.542190       14.613225       1
       13298.378       74.258568       14.418832       1
       13321.783       72.185667       14.446776       1
       13345.187       63.859088       14.194551       1
       13368.592       74.009017       14.305344       1
       13391.997       77.545815       14.225814       1
       13415.401       93.361786       14.474082       1
       13438.806       83.092024       14.170498       1
       13462.211       82.009867       14.240429       1
       13485.615       73.303765       13.946194       1
       13509.020       79.658738       14.105512       1
       13532.425       65.490700       13.715289       1
       13555.829       57.520491       13.722308       1
       13579.234       52.731837       13.859775       1
       13602.639       61.200825       13.823132       1
       13626.044       63.210734       13.924556       1
       13649.448       53.450383       13.747616       1
       13672.853       52.941481       13.606280       1
       13696.258       59.593076       13.792995       1
       13719.662       48.368411       14.320799       1
       13743.067       52.226886       13.770253       1
       13766.472       46.858390       14.230343       1
       13789.876       60.754588       13.832396       1
       13813.281       60.248741       13.697947       1
       13836.686       46.584384       12.679511       1
       13860.091       59.061209       13.661538       1
       13883.495       55.777296       13.711629       1
       13906.900       42.988352       12.166288       1
       13930.305       33.080052       3875111.6       1
       13953.709       50.482745       13.471237       1
       13977.114       58.565096       13.576716       1
       14000.519       51.654257       13.318085       1
       14023.923       61.873871       13.477181       1
       14047.328       57.229461       13.284135       1
       14070.733       58.489034       13.255161       1
       14094.137       57.707679       13.344698       1
       14117.542       55.592294       13.206265       1
       14140.947       58.034890       13.097422       1
       14164.352       59.149471       13.196390       1
       14187.756       58.355692       13.012132       1
       14211.161       49.395264       12.089124       1
       14234.566       57.038821       13.090123       1
       14257.970       47.338561       11.844061       1
       14281.375       56.866642       13.032412       1
       14304.780       60.392033       13.857808       1
       14328.184       70.691985       12.915496       1
       14351.589       62.037190       13.025507       1
       14374.994       44.782783       11.794337       1
       14398.399       49.811049       12.872373       1
       14421.803       63.020619       12.754686       1
       14445.208       61.680785       12.831325       1
       14468.613       68.735480       12.820476       1
       14492.017       62.371590       12.812670       1
       14515.422       54.494160       12.819613       1
       14538.827       44.868146       11.744678       1
       14562.231       54.236056       12.670030       1
       14585.636       58.347694       12.778297       1
       14609.041       58.787667       12.706248       1
       14632.445       53.468344       12.765683       1
       14655.850       62.860970       12.714850       1
       14679.255       57.596986       12.762756       1
       14702.660       58.482862       12.696200       1
       14726.064       54.492366       12.736543       1
       14749.469       62.193681       12.744489       1
       14772.874       47.155373       3615153.7       1
       14796.278       74.304018       12.907499       1
       14819.683       68.919018       12.886789       1
       14843.088       57.103126       12.673788       1
       14866.492       56.004023       12.725259       1
       14889.897       60.453301       12.853217       1
       14913.302       53.175050       12.544800       1
       14936.707       61.944413       12.534324       1
       14960.111       52.542806       12.500818       1
       14983.516       54.383463       12.318786       1
       15006.921       55.497620       12.409609       1
       15030.325       60.736000       12.377222       1
       15053.730       57.296989       12.399876       1
       15077.135       60.929018       12.557195       1
       15100.539       63.665482       12.559314       1
       15123.944       57.622290       12.359163       1
       15147.349       63.956105       12.443659       1
       15170.753       49.442855       12.205004       1
       15194.158       59.785354       12.356677       1
       15217.563       57.499646       12.280868       1
       15240.968       56.943787       12.261373       1
       15264.372       64.198742       12.329203       1
       15287.777       62.007493       12.356145       1
       15311.182       69.642781       12.313008       1
       15334.586       55.718920       12.289699       1
       15357.991       56.825497       12.262208       1
       15381.396       50.322805       11.421806       1
       15404.800       58.160783       12.292244       1
       15428.205       61.626888       12.445117       1
       15451.610       60.661492       12.336911       1
       15475.015       56.579838       12.405190       1
       15498.419       57.211770       12.507510       1
       15521.824       64.613106       12.500898       1
       15545.229       66.659174       12.430214       1
       15568.633       67.613141       12.557087       1
       15592.038       62.047292       12.466083       1
       15615.443       61.499838       12.503509       1
       15638.847       50.172016       11.716950       1
       15662.252       60.893616       12.484047       1
       15685.657       60.207015       12.342654       1
       15709.061       63.176935       12.456357       1
       15732.466       57.141586       12.243401       1
       15755.871       55.286061       12.356300       1
       15779.276       65.732646       12.306173       1
       15802.680       62.579333       12.388078       1
       15826.085       63.782255       12.307287       1
       15849.490       63.771890       3448648.5       1
       15872.894       55.289918       12.278689       1
       15896.299       52.712529       12.286670       1
       15919.704       56.868802       12.297875       1
       15943.108       65.905947       12.488140       1
       15966.513       62.683800       12.370667       1
       15989.918       58.344284       12.494684       1
       16013.323       58.905387       12.366595       1
       16036.727       46.555456       11.450001       1
       16060.132       62.525046       12.582750       1
       16083.537       63.582628       12.524069       1
       16106.941       64.667930       12.421022       1
       16130.346       58.767793       12.570213       1
       16153.751       65.359065       12.470969       1
       16177.155       56.117769       12.653588       1
       16200.560       66.114662       12.574344       1
       16223.965       51.130245       12.694140       1
       16247.369       71.307783       12.898237       1
       16270.774       67.822332       12.970957       1
       16294.179       66.672537       12.844052       1
       16317.584       61.099039       12.891761       1
       16340.988       56.403006       12.802687       1
       16364.393       49.578017       11.982040       1
       16387.798       62.754516       12.905012       1
       16411.202       66.101314       13.114609       1
       16434.607       58.608637       12.882679       1
       16458.012       64.194346       13.141576       1
       16481.416       68.682257       13.114648       1
       16504.821       62.397610       13.417387       1
       16528.226       56.511887       13.520551       1
       16551.631       62.660746       14.077528       1
       16575.035       63.560703       14.496801       1
       16598.440       55.123999       15.241776       1
       16621.845       51.957042       16.266572       1
       16645.249       61.261629       17.486832       1
       16668.654       66.779279       18.830242       1
       16692.059       61.527637       20.875345       1
       16715.463       60.136056       23.795847       1
       16738.868       75.740522       26.187584       1
       16762.273       66.919484       29.740448       0
       16785.677       77.994232       9635959.6       0
       16809.082       110.04446       38.580570       0
       16832.487       63.806065       39.614158       0
       16855.892       61.949145       49.865536       0
       16879.296       72.302118       15998844.       0
       16902.701       62.706380       61.601430       0
       16926.106       103.35344       69.372237       0
       16949.510       86.584531       77.272155       0
       16972.915       102.73729       87.382603       0
       16996.320       41.756824       98.834580       0
       17019.724       95.181419       109.06152       0
       17043.129       94.716364       120.72793       0
       17066.534       177.34562       135.06490       0
       17089.939       62.107689       146.76872       0
       17113.343       206.83702       168.92842       0
       17136.748       154.44669       190.73563       0
       17160.153       136.11415       220.18252       0
       17183.557       89.676820       253.68020       0
       17206.962       25.612891       292.34665       0
       17230.367       501.43603       336.47907       0
       17253.771       64.699283       375.78561       0
       17277.176       68.836016       449.19243       0
       17300.581       11.143283       468.48880       0
       17323.985       379.61317       514.59022       0
       17347.390       67.889325   1.6518744e+08       0
       17370.795       233.11859       636.29079       0
       17394.200       440.30137       718.27521       0
       17417.604       615.87567       784.34268       0
       17441.009      -170.35396       854.07914       0
       17464.414       521.01214       955.02686       0
       17487.818       967.66008       1115.5679       0
