#WAVELENGTH FLUX ERROR MASK
       7515.7512      -859.33761       14905.543       0
       7528.4460      -5441.2585       14876.460       0
       7541.1408       4212.3866       10499.309       0
       7553.8356      -8821.8122       9613.0512       0
       7566.5304       719.58770       6120.9441       0
       7579.2252      -1812.1020       5963.4721       0
       7591.9199      -2567.0167       3861.8737       0
       7604.6147      -1440.3497       3982.9798       0
       7617.3095      -1509.4697       2693.1128       0
       7630.0043       325.98932       2885.1664       0
       7642.6991       69.173535       1985.6734       0
       7655.3939       401.61526       2105.7016       0
       7668.0886       329.89294       1416.0358       0
       7680.7834      -279.29679       1453.2886       0
       7693.4782      -1.7962480       968.28586       0
       7706.1730      -2.1527111       1009.7515       0
       7718.8678       173.11426       695.85319       0
       7731.5626       108.09989       753.44630       0
       7744.2574       180.30664       551.68397       0
       7756.9521      -164.12009       617.36304       0
       7769.6469       100.03749       464.31176       0
       7782.3417       126.67683       523.56685       0
       7795.0365       70.453183       386.58973       0
       7807.7313       244.22597       429.49066       0
       7820.4261       137.89521       312.28530       0
       7833.1209       329.66827       347.61345       0
       7845.8156       176.28739       249.94872       0
       7858.5104       78.494946       278.61823       0
       7871.2052       47.553148       204.02881       0
       7883.9000       41.138067       231.69854       0
       7896.5948       102.28965       173.90115       0
       7909.2896       131.52384       202.49875       0
       7921.9843       146.68118       189.49786       0
       7934.6791       3.3874126       181.35641       0
       7947.3739       30.186842       139.54594       0
       7960.0687       189.54798       166.28648       0
       7972.7635       3.7959443       126.76935       0
       7985.4583       28.870906       151.03221       0
       7998.1531       44.707394       117.33269       0
       8010.8478       116.97385       142.15557       0
       8023.5426       124.29974       110.85221       0
       8036.2374       15.353461       133.31456       0
       8048.9322       118.87715       105.71383       0
       8061.6270       136.06306       128.73619       0
       8074.3218       128.31075       123.75900       0
       8087.0166       102.39855       123.88053       0
       8099.7113       56.529658       97.373924       0
       8112.4061       123.37476       119.59643       0
       8125.1009       74.044462       94.097199       0
       8137.7957       59.282737       114.74693       0
       8150.4905       104.62030       90.023852       1
       8163.1853       117.07829       111.53164       1
       8175.8801       65.380471       87.705283       1
       8188.5748       26.277647       106.04901       1
       8201.2696       15.155643       83.915979       1
       8213.9644       125.56398       103.03401       1
       8226.6592       117.28316       81.036548       1
       8239.3540       35.754946       97.119170       1
       8252.0488       93.837187       76.831293       1
       8264.7435       33.456471       91.712228       1
       8277.4383       46.238663       72.489514       1
       8290.1331       103.16411       88.262766       1
       8302.8279       63.624123       69.204248       1
       8315.5227     -0.77724551       83.152406       1
       8328.2175       25.437359       66.164091       1
       8340.9123       28.540694       80.361702       1
       8353.6070       100.13874       64.516290       1
       8366.3018       84.355009       78.547318       1
       8378.9966       56.099269       66.103449       1
       8391.6914       28.280729       75.825851       1
       8404.3862       76.737149       60.632998       1
       8417.0810       8.8016222       73.896749       1
       8429.7758       23.566208       58.380983       1
       8442.4705       74.843890       71.929926       1
       8455.1653       39.208182       56.752492       1
       8467.8601       124.73442       69.804854       1
       8480.5549       54.363127       55.133433       1
       8493.2497       46.252836       67.393307       1
       8505.9445       59.306201       53.787056       1
       8518.6393       40.447944       65.585589       1
       8531.3340       56.323921       52.584582       1
       8544.0288       52.271951       64.833984       1
       8556.7236       37.552500       51.696373       1
       8569.4184       81.778853       64.288321       1
       8582.1132       27.633553       51.065803       1
       8594.8080       81.889388       63.663500       1
       8607.5027       94.879938       51.173822       1
       8620.1975       73.464083       63.108989       1
       8632.8923       32.987207       50.331498       1
       8645.5871       54.637021       62.313243       1
       8658.2819       52.435041       49.824376       1
       8670.9767       27.312206       61.213232       1
       8683.6715       63.706914       48.837208       1
       8696.3662       53.170902       59.737290       1
       8709.0610       18.990835       46.924106       1
       8721.7558       52.234715       57.229894       1
       8734.4506       19.342148       45.014011       1
       8747.1454       92.194379       55.837454       1
       8759.8402       35.114507       43.726985       1
       8772.5350       55.955354       53.598092       1
       8785.2297       32.587179       42.707127       1
       8797.9245       25.027917       52.371066       1
       8810.6193       51.514834       41.925483       1
       8823.3141       55.525900       51.819226       1
       8836.0089       65.802830       41.346731       1
       8848.7037       59.240153       50.642392       1
       8861.3985       63.321933       40.471889       1
       8874.0932       17.589706       49.243339       1
       8886.7880       48.159715       39.512487       1
       8899.4828       78.892084       48.692954       1
       8912.1776       71.307887       39.008911       1
       8924.8724       72.210461       48.282328       1
       8937.5672       50.721079       38.282251       1
       8950.2619       77.875070       47.082879       1
       8962.9567       60.910801       37.595874       1
       8975.6515       60.884425       45.846947       1
       8988.3463       37.688322       36.622633       1
       9001.0411       48.131594       44.871487       1
       9013.7359       79.610860       36.339901       1
       9026.4307       44.785955       44.343395       1
       9039.1254       28.861142       35.349765       1
       9051.8202       59.623246       44.401434       1
       9064.5150       13.947647       35.234300       1
       9077.2098       71.584244       44.288715       1
       9089.9046       16.824067       34.808114       1
       9102.5994       19.823321       42.924633       1
       9115.2942       59.847028       34.446017       1
       9127.9889       44.710320       42.301202       1
       9140.6837       71.709273       33.810960       1
       9153.3785       12.205604       41.077487       1
       9166.0733       58.654449       33.096672       1
       9178.7681       54.503127       40.727537       1
       9191.4629       38.114346       32.383114       1
       9204.1577       68.785874       40.163672       1
       9216.8524       32.950107       31.733108       1
       9229.5472       40.880483       39.311541       1
       9242.2420       58.107834       31.422250       1
       9254.9368       87.916898       39.117194       1
       9267.6316       29.232967       30.759541       1
       9280.3264       48.955274       38.277853       1
       9293.0211       43.908715       30.418534       1
       9305.7159       53.615600       37.896648       1
       9318.4107       22.998997       35.295812       1
       9331.1055       39.434441       37.238073       1
       9343.8003       65.914642       29.983829       1
       9356.4951       51.443397       36.718007       1
       9369.1899       41.842145       29.488434       1
       9381.8846       40.097941       36.160068       1
       9394.5794       35.328686       29.091520       1
       9407.2742       41.751700       35.866957       1
       9419.9690       40.532394       28.847407       1
       9432.6638       32.456241       35.277380       1
       9445.3586       41.996702       28.391877       1
       9458.0534       29.878804       34.782218       1
       9470.7481       31.622372       27.846479       1
       9483.4429      -24.061458       30.382399       1
       9496.1377       23.914576       27.488247       1
       9508.8325       44.166061       34.020408       1
       9521.5273       42.351174       27.380448       1
       9534.2221       52.005214       33.566426       1
       9546.9168       45.812316       27.075925       1
       9559.6116       32.190746       33.175358       1
       9572.3064       38.178797       26.739766       1
       9585.0012       54.185573       33.137519       1
       9597.6960       44.433819       26.656057       1
       9610.3908       43.652641       32.748003       1
       9623.0856       42.320787       26.285701       1
       9635.7803       43.740630       32.473220       1
       9648.4751       43.734735       26.050640       1
       9661.1699       50.306752       32.138168       1
       9673.8647       34.041574       25.745579       1
       9686.5595       26.788681       31.770540       1
       9699.2543       26.449288       25.352919       1
       9711.9491       28.005398       31.481440       1
       9724.6438       28.376046       25.299955       1
       9737.3386       47.638205       31.551179       1
       9750.0334       5.8956891       24.911841       1
       9762.7282       47.948016       31.152278       1
       9775.4230       36.661711       24.874289       1
       9788.1178       17.883797       30.524712       1
       9800.8126       26.075181       24.487943       1
       9813.5073       38.130807       30.199002       1
       9826.2021       33.845515       24.219560       1
       9838.8969       40.837392       30.272895       1
       9851.5917       36.391706       24.165703       1
       9864.2865       56.007159       30.174899       1
       9876.9813       23.942464       23.864600       1
       9889.6760       28.200704       29.651439       1
       9902.3708       24.401079       25.203568       1
       9915.0656       10.774643       29.370390       1
       9927.7604       31.536908       23.771968       1
       9940.4552       30.851432       29.241577       1
       9953.1500       12.661756       28.574011       1
       9965.8448       38.710793       29.247854       1
       9978.5395       33.671404       23.524253       1
       9991.2343       34.665499       28.986176       1
       10003.929       53.328665       23.361366       1
       10016.624       52.203640       28.662088       1
       10029.319       54.194434       23.011976       1
       10042.013       52.179468       28.273984       1
       10054.708       39.345283       22.577660       1
       10067.403       47.515381       27.831206       1
       10080.098       40.873952       22.386212       1
       10092.793       54.099631       27.727606       1
       10105.487       58.072069       22.479120       1
       10118.182       45.328604       27.642546       1
       10130.877       43.214986       23.429544       1
       10143.572       34.989609       24.706563       1
       10156.267       43.437684       22.205409       1
       10168.961       55.215254       27.665254       1
       10181.656       48.624029       22.199930       1
       10194.351       46.380503       27.167013       1
       10207.046       43.126357       25.547608       1
       10219.740       50.726767       27.490125       1
       10232.435       50.555784       21.857233       1
       10245.130       29.000428       26.919697       1
       10257.825       54.815802       21.815632       1
       10270.520       37.726519       26.852044       1
       10283.214       46.959437       21.560518       1
       10295.909       41.301826       26.513356       1
       10308.604       53.497615       21.401121       1
       10321.299       38.731367       26.352601       1
       10333.994       55.184453       21.176496       1
       10346.688       54.815486       26.278424       1
       10359.383       57.740007       21.016781       1
       10372.078       51.985980       25.951923       1
       10384.773       56.298670       21.809642       1
       10397.467       47.239306       25.870117       1
       10410.162       52.283918       20.754769       1
       10422.857       62.893197       25.777324       1
       10435.552       54.749985       20.720876       1
       10448.247       58.452934       25.635245       1
       10460.941       54.471822       20.625283       1
       10473.636       58.387944       25.577621       1
       10486.331       62.921267       20.630187       1
       10499.026       34.620368       25.214678       1
       10511.721       57.936622       20.486633       1
       10524.415       64.474909       25.315923       1
       10537.110       69.226454       20.590895       1
       10549.805       58.408358       25.340458       1
       10562.500       45.170701       20.425993       1
       10575.194       38.254852       25.145275       1
       10587.889       45.294462       20.395733       1
       10600.584       57.315134       25.457667       1
       10613.279       47.913296       20.424102       1
       10625.974       38.446961       10300390.       1
       10638.668       48.228937       20.342338       1
       10651.363       55.028791       25.297537       1
       10664.058       45.546524       20.245198       1
       10676.753       60.983184       25.186461       1
       10689.448       73.893388       20.361922       1
       10702.142       37.465033       24.647742       1
       10714.837       51.317364       19.905627       1
       10727.532       43.025944       24.459424       1
       10740.227       63.717398       19.884539       1
       10752.921       49.515732       24.441042       1
       10765.616       35.134813       19.583217       1
       10778.311       67.114368       25.255007       1
       10791.006       51.871472       19.689571       1
       10803.701       50.067617       24.248606       1
       10816.395       71.273470       19.823476       1
       10829.090       87.114597       24.621516       1
       10841.785       69.507981       19.756620       1
       10854.480       71.822664       24.581257       1
       10867.175       69.015745       20.768155       1
       10879.869       82.054835       24.611930       1
       10892.564       75.957326       20.807893       1
       10905.259       68.981962       24.353198       1
       10917.954       67.569001       19.555111       1
       10930.648       104.73967       24.564923       1
       10943.343       64.409150       19.438025       1
       10956.038       80.218458       24.125423       1
       10968.733       62.583798       19.313425       1
       10981.428       57.341973       23.668818       1
       10994.122       76.554712       19.363221       1
       11006.817       53.633922       23.564312       1
       11019.512       72.659903       19.219281       1
       11032.207       66.163451       23.890870       1
       11044.901       68.710284       19.311494       1
       11057.596       57.900310       23.602664       1
       11070.291       54.464464       19.113997       1
       11082.986       64.673829       23.774243       1
       11095.681       71.496889       19.161016       1
       11108.375       57.596173       23.652313       1
       11121.070       61.307000       19.045192       1
       11133.765       67.049473       23.602311       1
       11146.460       66.938561       19.056282       1
       11159.155       84.077866       23.672622       1
       11171.849       62.301035       19.015673       1
       11184.544       77.021389       23.575427       1
       11197.239       51.636426       18.853214       1
       11209.934       61.064125       23.408374       0
       11222.628       75.783242       19.084779       0
       11235.323       66.131842       23.395865       0
       11248.018       60.203892       18.998815       0
       11260.713       43.483181       20.520949       0
       11273.408       63.997977       19.023296       0
       11286.102       51.389269       23.549732       0
       11298.797       60.740602       18.980745       0
       11311.492       73.784518       23.674141       0
       11324.187       59.994119       18.984596       0
       11336.882       59.047994       23.566662       0
       11349.576       68.277409       18.955000       0
       11362.271       36.998008       23.354686       0
       11374.966       59.044439       19.001593       0
       11387.661       62.895251       23.582259       0
       11400.355       68.114092       19.047600       0
       11413.050       60.121012       23.505733       0
       11425.745       54.472179       19.040209       0
       11438.440       57.210053       23.696899       0
       11451.135       49.460903       19.306521       0
       11463.829       53.125377       24.639892       0
       11476.524       47.754133       20.569359       0
       11489.219       31.097368       29.939256       0
       11501.914       52.571350       23.053083       0
       11514.609       25.840898       30.866699       0
       11527.303       55.523594       27.606105       0
       11539.998       45.992229       38.172923       0
       11552.693       63.886150       34.588884       0
       11565.388       42.400404       48.389257       0
       11578.082       26.456559       44.286745       0
       11590.777       63.629650       62.320480       0
       11603.472       25.987279       55.813469       0
       11616.167       62.789920       89.862808       0
       11628.862       8.2305463       68.570311       0
       11641.556      -68.177249       107.94956       0
       11654.251       9.1982378       84.314034       0
       11666.946      -57.342699       117.83097       0
       11679.641       27.498899       110.50861       0
       11692.336      -44.899025       160.89902       0
       11705.030       15.837406       157.05684       0
       11717.725      -100.80877       237.24575       0
       11730.420      -49.447407       237.94425       0
       11743.115       87.865938       363.66422       0
       11755.809      -375.09306       420.13388       0
       11768.504      -177.89640       535.23112       0
       11781.199      0.11515126       623.99626       0
       11793.894      -308.66408       777.80070       0
       11806.589      -340.77189       825.96139       0
       11819.283      -667.95315       1240.4994       0
       11831.978       453.60087       1311.8184       0
       11844.673      -417.80996       2075.7723       0
       11857.368       298.95958       2200.5622       0
       11870.063       1559.4829       3539.4568       0
       11882.757       326.74392       3411.0865       0
       11895.452      -1059.1291       4525.6994       0
       11908.147      -1297.0486       3731.8359       0
       11920.842      -1694.3933       4540.1293       0
       11933.536       1654.1459       3595.2278       0
       11946.231      -4340.8993       4306.1679       0
       11958.926      -2156.1406       3567.7743       0
       11971.621      -2658.2271       4711.6240       0
       11984.316       490.56526       4268.9993       0
       11997.010      -2557.6236       6136.3382       0
       12009.705       159.29386       5812.2787       0
       12022.400       784.99009       8609.8923       0
       12035.095      -7517.2763       9249.0251       0
       12047.790       6528.2434       11447.295       0
       12060.484      -2614.0378       10406.809       0
       12073.179       448.21673       14694.587       0
