#WAVELENGTH FLUX ERROR MASK
       10201.788       811.04267       4175.3974       0
       10225.063       1845.9242       3744.9273       0
       10248.338       2291.1447       3144.5633       0
       10271.613      -698.68020       2700.6031       0
       10294.888       1409.1226       2335.9300       0
       10318.163       2187.0189       2114.9213       0
       10341.438       358.27520       1829.7916       0
       10364.713       702.68306       1708.6577       0
       10387.988      -963.73863       1517.2439       0
       10411.263      -429.48072       1388.0239       0
       10434.538       222.81386       1232.0201       0
       10457.813       22.252509       1081.9142       0
       10481.088       1412.9804       912.47338       0
       10504.363       513.03489       760.39169       0
       10527.638       195.61472       638.47113       0
       10550.913       304.68908       557.89711       0
       10574.189       70.878555       483.72440       0
       10597.464       304.30155       435.82763       0
       10620.739       289.98653       385.48777       0
       10644.014       85.477325       352.45910       0
       10667.289      -273.47873       305.86869       0
       10690.564       155.21597       269.61578       0
       10713.839       138.95474       229.00494       0
       10737.114       133.33240       191.85610       0
       10760.389       162.12676       158.75649       0
       10783.664       123.86639       132.97430       0
       10806.939       22.726227       110.89907       0
       10830.214       31.795799       80.745913       0
       10853.489       37.537978       84.888198       0
       10876.764       69.289144       77.556383       0
       10900.039       106.77945       70.904883       0
       10923.314       54.471383       66.028049       0
       10946.589       17.773272       61.144301       0
       10969.864       62.644565       57.423818       0
       10993.139       40.406799       53.560563       0
       11016.414       42.106061       49.635035       1
       11039.689      -15.589266       37.805019       1
       11062.964       63.424636       44.043443       1
       11086.239      -17.445155       33.570056       1
       11109.514       39.814027       39.913974       1
       11132.789       45.534276       38.192930       1
       11156.064       50.342838       37.384859       1
       11179.339       53.042141       36.629793       1
       11202.614       106.01446       36.841231       1
       11225.889       20.163209       35.487283       1
       11249.164       43.665943       35.547119       1
       11272.439       8.1213056       28.533904       1
       11295.714       78.465072       35.231823       1
       11318.989       29.507590       34.167023       1
       11342.264       52.657206       34.438206       1
       11365.539       14.057668       33.272225       1
       11388.814       54.645767       33.843658       1
       11412.089       46.082215       33.067871       1
       11435.364       17.114844       33.008496       1
       11458.639       46.434764       32.840175       1
       11481.914       26.789525       10217677.       1
       11505.189       50.644152       32.524159       1
       11528.464       38.022499       32.591272       1
       11551.739       34.519498       32.232912       1
       11575.014       14.023292       32.153674       1
       11598.289       34.148688       31.919725       1
       11621.564       18.497688       31.729087       1
       11644.840       30.633916       31.361925       1
       11668.115       37.851613       31.160207       1
       11691.390       31.623570       30.706220       1
       11714.665       27.859079       30.557691       1
       11737.940       42.624437       29.996665       1
       11761.215       23.029108       29.728838       1
       11784.490       23.989086       29.215257       1
       11807.765       25.525161       29.113048       1
       11831.040       28.996116       28.607086       1
       11854.315       35.189548       28.611740       1
       11877.590       39.518190       28.308922       1
       11900.865      -1.9605679       27.933061       1
       11924.140       16.366982       27.715878       1
       11947.415       35.309753       28.312072       1
       11970.690       13.717827       27.365347       1
       11993.965       21.421754       27.963586       1
       12017.240       23.298310       27.091759       1
       12040.515       56.311119       27.822810       1
       12063.790       52.197800       26.868388       1
       12087.065       37.580388       27.163286       1
       12110.340       21.941649       26.338455       1
       12133.615     -0.42809802       26.589761       1
       12156.890       50.967563       26.199278       1
       12180.165       19.607111       26.412708       1
       12203.440       54.558112       26.055202       1
       12226.715       32.140604       26.347084       1
       12249.990       95.974326       25.674239       1
       12273.265       53.696723       26.222826       1
       12296.540       19.526547       24.425853       1
       12319.815      -3.3541366       25.508700       1
       12343.090       24.189839       24.941021       1
       12366.365       24.415627       25.383815       1
       12389.640       18.589150       24.610386       1
       12412.915       47.074609       25.194686       1
       12436.190       45.047245       24.581001       1
       12459.465       26.737712       25.045063       1
       12482.740       17.342937       24.332734       1
       12506.015       20.555679       24.781831       1
       12529.290       29.602913       24.840440       1
       12552.565       67.178474       24.996809       1
       12575.840       27.048654       23.910349       1
       12599.115       37.228292       24.484643       1
       12622.390       55.805585       24.173789       1
       12645.665       26.454648       24.292141       1
       12668.940       33.325381       23.804937       1
       12692.216       45.333070       24.260518       1
       12715.491       18.783982       23.527337       1
       12738.766      -48.483000       22.511978       1
       12762.041       32.653552       23.260069       1
       12785.316       30.942554       23.125472       1
       12808.591       23.593465       22.762246       1
       12831.866       16.024437       23.220123       1
       12855.141       52.811875       22.893113       1
       12878.416       40.137208       23.338992       1
       12901.691       45.439081       22.696844       1
       12924.966       26.188940       22.910218       1
       12948.241       35.620058       22.215326       1
       12971.516       65.596791       22.869934       1
       12994.791       35.572901       22.104986       1
       13018.066       29.874951       22.131725       1
       13041.341       51.200090       21.972870       1
       13064.616       22.736934       22.136076       1
       13087.891       32.718541       21.527280       1
       13111.166       25.020964       21.992372       1
       13134.441      0.52554190       21.185877       1
       13157.716       36.090073       21.719631       1
       13180.991       27.588384       21.039279       1
       13204.266       40.489351       21.965350       1
       13227.541       11.206171       20.915576       1
       13250.816       34.960643       21.649754       1
       13274.091       40.669869       21.000953       1
       13297.366       12.391221       17.671076       1
       13320.641       19.730700       20.593502       1
       13343.916       24.413736       21.438541       1
       13367.191       25.595056       20.726934       1
       13390.466       35.429786       21.414593       1
       13413.741       18.363441       20.440290       1
       13437.016       27.193746       21.102962       1
       13460.291       34.628570       20.370014       1
       13483.566       28.713822       20.862113       1
       13506.841       24.110065       20.041375       1
       13530.116       26.398411       20.789396       1
       13553.391       21.680134       19.928202       1
       13576.666       42.561058       20.860870       1
       13599.941       52.342171       20.574019       1
       13623.216       29.100184       20.798233       1
       13646.491       31.576500       20.004656       1
       13669.766       30.456591       20.799917       1
       13693.041       35.603523       20.017443       1
       13716.316       56.747636       20.867072       1
       13739.591       28.918074       20.021995       1
       13762.867       37.486699       20.864458       1
       13786.142       26.649021       20.114549       1
       13809.417       31.394194       20.869355       1
       13832.692       28.766578       20.019430       1
       13855.967       32.309624       20.677710       1
       13879.242       42.621931       20.034031       1
       13902.517       31.377237       20.627947       1
       13925.792       29.121960       19.887069       1
       13949.067       26.412316       20.470429       1
       13972.342       24.285236       19.710644       1
       13995.617      -10.091063       17.245006       1
       14018.892       35.233778       20.038948       1
       14042.167       20.836789       19.814731       1
       14065.442       9.9149453       19.259190       1
       14088.717       35.025268       20.126081       1
       14111.992       22.045934       19.154595       1
       14135.267       30.384883       19.821678       1
       14158.542       34.153259       19.171432       1
       14181.817       23.943412       19.806389       1
       14205.092       49.320266       19.112177       1
       14228.367       7.2516731       19.518480       1
       14251.642       42.464908       19.063310       1
       14274.917       28.979036       19.425891       1
       14298.192       30.786718       18.828073       1
       14321.467       21.185398       19.261212       1
       14344.742       30.759720       18.684053       1
       14368.017       23.005126       19.206526       1
       14391.292       35.012425       18.611928       1
       14414.567       18.035629       19.183090       1
       14437.842       18.540848       18.506766       1
       14461.117       13.338568       18.856429       1
       14484.392       59.592052       18.791923       1
       14507.667       27.462887       19.037610       1
       14530.942       30.177075       19.736766       1
       14554.217       36.877256       18.985105       1
       14577.492       16.870683       19.651727       1
       14600.767       42.474069       19.071944       1
       14624.042      -44.600271       13.065940       1
       14647.317       33.893858       18.949570       1
       14670.592       31.101427       18.560968       1
       14693.867       44.698813       19.080505       1
       14717.142       30.897185       18.680879       1
       14740.417       45.403751       19.144839       1
       14763.692       30.915519       18.571432       1
       14786.967       46.123895       19.199945       1
       14810.242       28.608709       18.090877       1
       14833.518       20.220086       18.789036       1
       14856.793       22.241072       18.406193       1
       14880.068       38.634737       18.786704       1
       14903.343       30.346983       18.272032       1
       14926.618       19.765018       19.057728       1
       14949.893       23.990046       18.113657       1
       14973.168       6.0227231       19.443138       1
       14996.443       28.351909       18.108316       1
       15019.718       13.345749       19.457114       1
       15042.993       27.860174       17.985724       1
       15066.268       16.703273       18.301959       1
       15089.543       39.348250       18.186835       1
       15112.818       5.5458834       18.215801       1
       15136.093       34.971726       18.030929       1
       15159.368       16.355426       18.321318       1
       15182.643       15.645926       17.759652       1
       15205.918       29.865735       18.001857       1
       15229.193       27.217004       17.864454       1
       15252.468       41.729646       18.094728       1
       15275.743       42.644177       17.837694       1
       15299.018       38.688456       17.936220       1
       15322.293       14.694587       17.690104       1
       15345.568      -34.758802       13.516510       1
       15368.843       34.589445       17.919060       1
       15392.118       20.703057       18.111271       1
       15415.393       15.189687       17.721152       1
       15438.668       33.979297       18.179470       1
       15461.943       6.8019623       17.812975       1
       15485.218       29.199189       18.374190       1
       15508.493       21.243183       17.830014       1
       15531.768       35.688304       18.300871       1
       15555.043       26.153753       17.922682       1
       15578.318      -20.604758       13.730959       1
       15601.593       37.734563       18.053358       1
       15624.868       37.469501       18.388848       1
       15648.143       25.118661       17.907060       1
       15671.418       44.823053       18.316809       1
       15694.693       31.371442       17.725953       1
       15717.968       34.497642       18.289968       1
       15741.243       19.646153       17.327803       1
       15764.518       19.147394       17.746383       1
       15787.793       18.219111       17.768508       1
       15811.068       31.469017       17.800494       1
       15834.343       25.326976       17.585888       1
       15857.618       20.925757       17.860473       1
       15880.893       32.781934       17.259968       1
       15904.169       29.828451       17.923954       1
       15927.444       25.496558       17.792093       1
       15950.719       27.855450       17.904238       1
       15973.994       33.787671       17.889826       1
       15997.269      -8.2129010       14.213626       1
       16020.544       31.297735       17.820713       1
       16043.819       24.373122       17.798034       1
       16067.094       13.075615       17.734648       1
       16090.369       22.012689       17.899561       1
       16113.644       35.925928       17.992248       1
       16136.919       44.135337       5485387.9       1
       16160.194       49.691480       18.170353       1
       16183.469       29.681569       18.197947       1
       16206.744       19.483242       18.055459       1
       16230.019       22.962721       18.125654       1
       16253.294       12.468066       18.098025       1
       16276.569       51.507101       18.535095       1
       16299.844       24.052492       18.351037       1
       16323.119       36.658809       18.592587       1
       16346.394       22.211588       18.288221       1
       16369.669       2.1717448       18.364691       1
       16392.944       11.204760       18.228812       1
       16416.219       46.694547       18.708761       1
       16439.494       28.775981       18.379067       1
       16462.769       28.496063       18.714581       1
       16486.044       28.749457       18.717824       1
       16509.319       11.312067       19.083948       1
       16532.594       35.644871       19.708444       1
       16555.869       31.874518       20.451231       1
       16579.144       27.492075       21.060589       1
       16602.419       15.932666       22.503480       1
       16625.694       2.0921181       23.590484       1
       16648.969       52.369004       26.060120       1
       16672.244      -9.3969667       27.820526       1
       16695.519       11.055958       31.200497       1
       16718.794     -0.86977573       34.335664       1
       16742.069       26.247942       39.651424       1
       16765.344       21.624522       44.722044       0
       16788.619      0.30938036       51.238701       0
       16811.894      -1.5095030       58.156045       0
       16835.169       103.15671       68.169609       0
       16858.444      -16.974262       61.577120       0
       16881.719       6.2730205       83.883492       0
       16904.994       20.432308       93.226700       0
       16928.269       99.072805       105.61007       0
       16951.545       98.173632       116.43146       0
       16974.820       168.32840       133.64942       0
       16998.095       94.836719       146.08068       0
       17021.370       93.428671       164.75057       0
       17044.645      -107.03064       178.40268       0
       17067.920       213.85072       203.54126       0
       17091.195      -76.323410       219.80262       0
       17114.470       25.712292       253.83245       0
       17137.745      -262.02179       281.34116       0
       17161.020       413.03425       337.57799       0
       17184.295      -122.29928       376.19275       0
       17207.570      -496.02074       439.03661       0
       17230.845       64.145559       489.38728       0
       17254.120       700.54753       569.15037       0
       17277.395       115.91183       616.41953       0
       17300.670      -496.77281       691.79651       0
       17323.945       1105.8948       760.05669       0
       17347.220       630.29836       845.08148       0
       17370.495      -1076.5701       921.75098       0
       17393.770      -496.54119       1032.0832       0
       17417.045       129.41653       1117.6743       0
       17440.320      -657.63825       1251.8310       0
