#WAVELENGTH FLUX ERROR MASK
       7515.7947      -11930.331       25193.982       0
       7527.9938       1183.7013       18814.708       0
       7540.1928       12326.915       18035.865       0
       7552.3919      -6536.5804       12250.029       0
       7564.5910      -9668.1410       11083.217       0
       7576.7901      -2903.5185       7666.7295       0
       7588.9891       9072.2784       7302.8261       0
       7601.1882       1437.1434       5160.2421       0
       7613.3873       662.73310       4646.1648       0
       7625.5863      -219.36331       3735.6858       0
       7637.7854      -3213.8084       3857.3635       0
       7649.9845       1587.4900       2684.0335       0
       7662.1836       109.30046       3241.6513       0
       7674.3826      -147.48814       2090.2059       0
       7686.5817      -2057.1600       1910.8260       0
       7698.7808      -34.076760       1327.1791       0
       7710.9799      -468.21969       1301.0729       0
       7723.1789       735.98687       987.24625       0
       7735.3780       811.90811       1022.6613       0
       7747.5771       877.08102       806.15044       0
       7759.7761      -53.442810       848.46556       0
       7771.9752       307.30138       680.34697       0
       7784.1743      -317.55176       678.88136       0
       7796.3734       292.34330       572.00585       0
       7808.5724      -422.76183       588.05118       0
       7820.7715       465.64774       464.48613       0
       7832.9706       326.12285       479.55519       0
       7845.1697       162.17542       377.70326       0
       7857.3687       41.989331       406.63981       0
       7869.5678      -66.209418       304.71610       0
       7881.7669      -151.72090       307.70884       0
       7893.9659      -32.553283       261.35495       0
       7906.1650       309.83965       311.83372       0
       7918.3641       164.21649       235.87048       0
       7930.5632     0.017037203       273.16405       0
       7942.7622       65.252076       211.21644       0
       7954.9613       6.3298622       274.87082       0
       7967.1604       102.11526       193.40922       0
       7979.3595       157.40540       201.03666       0
       7991.5585      -39.302012       185.41842       0
       8003.7576       75.136212       199.85643       0
       8015.9567       223.82381       204.89920       0
       8028.1557      -42.115648       177.72013       0
       8040.3548      -67.605773       158.62423       0
       8052.5539       211.51262       180.81003       0
       8064.7530      -66.732383       153.58642       0
       8076.9520       42.451760       167.13970       0
       8089.1511       153.32926       147.88764       0
       8101.3502       78.451921       159.21217       0
       8113.5493       51.430627       147.64619       0
       8125.7483       109.59125       159.12961       0
       8137.9474       46.701460       145.20698       0
       8150.1465      -77.552503       160.13307       1
       8162.3455       183.81422       141.95349       1
       8174.5446       179.05025       159.01386       1
       8186.7437       178.50059       134.28316       1
       8198.9428       148.33737       152.90948       1
       8211.1418       216.25288       130.71482       1
       8223.3409       64.976656       153.67860       1
       8235.5400       82.489065       124.80810       1
       8247.7391      -23.099384       128.95687       1
       8259.9381       151.29899       118.32815       1
       8272.1372       25.072137       159.96679       1
       8284.3363       38.437252       109.74834       1
       8296.5354       68.907373       152.32695       1
       8308.7344       69.181857       120.41014       1
       8320.9335      -77.313140       112.30030       1
       8333.1326       58.533748       108.76416       1
       8345.3316      -62.768244       119.80464       1
       8357.5307      -30.851833       99.081852       1
       8369.7298       263.03696       115.97624       1
       8381.9289      -11.648685       97.235767       1
       8394.1279      -17.369706       108.69758       1
       8406.3270       45.537421       93.981776       1
       8418.5261      -29.107600       106.36362       1
       8430.7252       42.021944       91.501294       1
       8442.9242      -4.2362636       97.776981       1
       8455.1233       1.1825680       88.303206       1
       8467.3224      -36.375880       92.925863       1
       8479.5214      -1.1616415       87.345068       1
       8491.7205      0.75625558       98.094402       1
       8503.9196       3.8105555       85.350049       1
       8516.1187       4.6254501       88.733684       1
       8528.3177       34.621970       82.420760       1
       8540.5168      -4.6402558       87.624767       1
       8552.7159       31.396673       104.03068       1
       8564.9150       81.752080       89.635206       1
       8577.1140       8.6485296       87.842263       1
       8589.3131       124.96775       88.097025       1
       8601.5122      -44.076176       82.989770       1
       8613.7112      -5.3034014       92.789894       1
       8625.9103       76.501407       82.691443       1
       8638.1094       70.102544       87.988828       1
       8650.3085      -39.887134       80.314665       1
       8662.5075       10.763459       86.311454       1
       8674.7066       27.220011       79.317644       1
       8686.9057      -14.204008       82.558584       1
       8699.1048       74.369144       76.389598       1
       8711.3038       89.850981       79.979907       1
       8723.5029       30.456570       74.118438       1
       8735.7020       60.534527       77.775857       1
       8747.9010       53.860894       70.932943       1
       8760.1001       28.401167       75.606417       1
       8772.2992       16.222439       70.534782       1
       8784.4983       35.193225       74.493992       1
       8796.6973       50.284084       69.129878       1
       8808.8964       67.107322       76.477602       1
       8821.0955       21.219461       70.596090       1
       8833.2946      -15.005568       85.327593       1
       8845.4936      -18.701251       76.005513       1
       8857.6927       44.915262       73.154472       1
       8869.8918       103.28381       64.492189       1
       8882.0908       58.614759       72.469573       1
       8894.2899       3.7093238       63.549784       1
       8906.4890      -17.679192       66.950337       1
       8918.6881       81.654142       63.264187       1
       8930.8871       2.8321009       65.776626       1
       8943.0862       43.290060       61.421701       1
       8955.2853       75.631643       68.305868       1
       8967.4844       27.316757       60.058598       1
       8979.6834     -0.53612301       65.681651       1
       8991.8825       55.687641       59.465827       1
       9004.0816       84.621992       66.108009       1
       9016.2806      -14.715970       58.249955       1
       9028.4797       92.120754       61.595117       1
       9040.6788       51.080874       56.279265       1
       9052.8779       69.019922       66.113380       1
       9065.0769       121.13536       56.848724       1
       9077.2760      -11.789723       64.060224       1
       9089.4751       86.059606       55.798160       1
       9101.6742       56.589016       62.867640       1
       9113.8732       16.200905       53.076221       1
       9126.0723       83.612228       62.296352       1
       9138.2714      -31.767015       53.886651       1
       9150.4704       88.055349       55.637926       1
       9162.6695       34.975592       54.534618       1
       9174.8686       61.156657       54.593990       1
       9187.0677       53.213499       50.725826       1
       9199.2667       32.504984       52.945307       1
       9211.4658       19.615434       49.350010       1
       9223.6649       29.740563       52.347684       1
       9235.8640       24.865946       49.153573       1
       9248.0630       25.128648       51.907614       1
       9260.2621     -0.11057665       48.230448       1
       9272.4612      -2.5525450       50.233033       1
       9284.6603       63.118589       48.395254       1
       9296.8593       59.469767       50.683088       1
       9309.0584       65.017591       47.302102       1
       9321.2575      -11.416182       49.808853       1
       9333.4565       36.861482       47.026549       1
       9345.6556       59.147534       50.665454       1
       9357.8547      -49.795804       46.368939       1
       9370.0538      -20.116884       48.021639       1
       9382.2528       40.266510       46.777154       1
       9394.4519       16.877379       47.662317       1
       9406.6510       20.278377       45.442352       1
       9418.8501       29.354528       47.475295       1
       9431.0491       28.002520       44.587635       1
       9443.2482       37.754102       47.604635       1
       9455.4473       56.402347       44.635069       1
       9467.6463       31.650048       46.507673       1
       9479.8454       29.068795       42.193970       1
       9492.0445       12.870168       44.533269       1
       9504.2436       20.707048       41.626003       1
       9516.4426       48.048393       43.952114       1
       9528.6417       68.513621       54.109966       1
       9540.8408       46.563346       44.366869       1
       9553.0399       38.994871       52.312880       1
       9565.2389       30.512398       46.726912       1
       9577.4380       58.615184       43.974367       1
       9589.6371       42.700375       43.073541       1
       9601.8361       19.768567       40.183345       1
       9614.0352       52.973843       42.880932       1
       9626.2343       15.779149       39.478251       1
       9638.4334       6.9436212       41.991951       1
       9650.6324       37.353794       39.489998       1
       9662.8315       26.271502       41.733379       1
       9675.0306       44.224933       39.144486       1
       9687.2297       3.8420781       40.860161       1
       9699.4287       40.885902       42.366366       1
       9711.6278       43.855277       46.275087       1
       9723.8269       9.0294377       38.195076       1
       9736.0259       25.575212       43.054123       1
       9748.2250       35.944686       38.094624       1
       9760.4241       58.012890       43.339113       1
       9772.6232      -12.858076       39.434700       1
       9784.8222       45.691438       40.303364       1
       9797.0213       43.730614       38.088649       1
       9809.2204      -29.042357       38.946771       1
       9821.4195       46.001234       41.158698       1
       9833.6185       14.781816       39.588948       1
       9845.8176       19.502699       37.233927       1
       9858.0167       13.623584       39.009362       1
       9870.2157       22.370378       37.475990       1
       9882.4148       30.744093       39.138545       1
       9894.6139       7.1239765       37.978723       1
       9906.8130       47.060680       39.336884       1
       9919.0120       21.049082       36.640936       1
       9931.2111      0.76507160       38.760019       1
       9943.4102       24.049075       37.622760       1
       9955.6093       43.025966       40.051539       1
       9967.8083      -37.781031       47.113265       1
       9980.0074       4.4211915       39.099160       1
       9992.2065       81.276860       40.036880       1
       10004.406       35.063613       38.983530       1
       10016.605       49.127522       36.865457       1
       10028.804       83.382625       39.211217       1
       10041.003       54.903292       36.957181       1
       10053.202       24.624862       40.657584       1
       10065.401       52.697947       36.425315       1
       10077.600       55.605493       38.786682       1
       10089.799       56.034113       36.369742       1
       10101.998      -10.198547       37.829486       1
       10114.197       21.035942       41.085160       1
       10126.396       23.307525       37.818829       1
       10138.595       16.313297       35.754667       1
       10150.794       14.473647       37.810165       1
       10162.993       3.4136417       35.294156       1
       10175.193       23.966570       37.432026       1
       10187.392       65.129360       35.957450       1
       10199.591       38.869483       36.542120       1
       10211.790     -0.67727067       34.662076       1
       10223.989       21.594800       36.836050       1
       10236.188       56.326900       35.356478       1
       10248.387       67.345273       37.142928       1
       10260.586       2.2715622       33.859885       1
       10272.785       9.8811753       35.332884       1
       10284.984       30.186316       33.391326       1
       10297.183       79.857269       36.096262       1
       10309.382       43.526965       33.954435       1
       10321.581       33.270618       35.561823       1
       10333.781       48.912887       33.556349       1
       10345.980       76.625672       35.938198       1
       10358.179       22.885200       33.272005       1
       10370.378       27.068539       35.573329       1
       10382.577       34.289276       43.247151       1
       10394.776      -3.4858638       36.379987       1
       10406.975       6.8615804       34.416390       1
       10419.174       28.586698       35.706222       1
       10431.373       35.235517       34.669679       1
       10443.572       31.991183       35.984628       1
       10455.771       39.921746       34.159547       1
       10467.970       23.857772       35.809974       1
       10480.169       43.831735       34.909481       1
       10492.368       31.620865       36.051872       1
       10504.568       50.791335       40.699742       1
       10516.767       32.604040       36.253512       1
       10528.966       16.197987       34.073983       1
       10541.165       36.135519       36.158507       1
       10553.364       34.563067       34.427383       1
       10565.563       38.491581       36.063413       1
       10577.762       34.008914       33.876195       1
       10589.961       16.868720       35.553849       1
       10602.160      0.32171888       36.035491       1
       10614.359      -1.1292480       35.063528       1
       10626.558       7.5484321       33.253817       1
       10638.757       9.1220747       35.004111       1
       10650.956       13.464670       33.013885       1
       10663.155       16.641418       34.685662       1
       10675.355       4.0339944       32.746337       1
       10687.554      -30.815648       35.708815       1
       10699.753       24.340250       32.721123       1
       10711.952       47.640488       34.978828       1
       10724.151       18.899238       32.577197       1
       10736.350       57.147577       34.511104       1
       10748.549       23.287522       32.639599       1
       10760.748       67.868750       41.121030       1
       10772.947      -5.5579940       32.369092       1
       10785.146      -5.7162677       33.422812       1
       10797.345       9.4286576       32.696064       1
       10809.544      -9.7377071       33.595851       1
       10821.743       21.326259       32.612728       1
       10833.943       46.589293       34.099040       1
       10846.142       20.091712       32.043373       1
       10858.341       61.023961       32.796061       1
       10870.540       34.741261       31.461445       1
       10882.739       11.582614       32.654931       1
       10894.938       72.760534       31.669654       1
       10907.137      -2.4939230       32.174015       1
       10919.336       45.999647       31.760934       1
       10931.535       16.002018       32.074442       1
       10943.734       4.8503172       31.214710       1
       10955.933       49.141386       33.033849       1
       10968.132      -3.0870150       30.577843       1
       10980.331       43.821932       32.849007       1
       10992.530       26.399686       31.246082       1
       11004.730       40.446501       31.915401       1
       11016.929       38.124871       30.755150       1
       11029.128       9.6714960       32.675166       1
       11041.327       71.556051       31.314375       1
       11053.526       38.205179       32.553827       1
       11065.725       70.489705       30.944842       1
       11077.924       45.857360       32.543553       1
       11090.123       48.727916       31.133736       1
       11102.322       33.748633       32.497398       1
       11114.521       24.556851       30.337723       1
       11126.720       8.8457005       32.265692       1
       11138.919       53.677236       31.294785       1
       11151.118       29.839717       32.427878       1
       11163.317       63.956984       31.386680       1
       11175.517       42.413309       32.160425       1
       11187.716       41.933025       30.597444       1
       11199.915       34.570494       32.200956       1
       11212.114      -11.387207       30.265348       0
       11224.313       32.348650       32.730090       0
       11236.512       25.231765       31.103664       0
       11248.711       26.526965       32.363961       0
       11260.910       21.110285       31.015567       0
       11273.109       51.920344       32.632854       0
       11285.308       42.943365       31.218973       0
       11297.507       5.8575809       32.552625       0
       11309.706       19.043192       30.410527       0
       11321.905       15.065678       33.234529       0
       11334.104       29.496110       32.785103       0
       11346.304       42.591112       37.032250       0
       11358.503       53.308201       37.731879       0
       11370.702      -40.290784       42.692499       0
       11382.901       27.617955       45.837704       0
       11395.100       33.401882       54.686195       0
       11407.299       78.148600       59.163157       0
       11419.498       31.138452       74.732001       0
       11431.697      -11.387697       75.436991       0
       11443.896       23.516820       91.527448       0
       11456.095       4.3997436       95.364056       0
       11468.294       17.533593       112.09107       0
       11480.493      -32.310194       116.33996       0
       11492.692       96.864249       139.98956       0
       11504.892      -9.3612490       148.90942       0
       11517.091       101.60335       182.84248       0
       11529.290       77.094140       204.75695       0
       11541.489       70.590858       278.31696       0
       11553.688      -280.37681       303.68824       0
       11565.887       586.97897       415.19294       0
       11578.086       82.141858       472.65739       0
       11590.285       308.18309       630.84010       0
       11602.484       392.41742       714.05997       0
       11614.683      -181.35539       921.81098       0
       11626.882      -170.26719       1059.3636       0
       11639.081      -409.56994       1494.0172       0
       11651.280       1392.3283       1770.3042       0
       11663.479      -1967.1153       2562.6842       0
       11675.679       1636.8668       2969.8383       0
       11687.878       2020.9998       4191.0186       0
       11700.077       1202.4072       5041.6385       0
       11712.276       5829.8710       6048.1752       0
       11724.475      -865.94267       5811.0215       0
       11736.674       4465.3566       6108.6433       0
       11748.873       2741.0605       5640.4859       0
       11761.072       2607.0798       5891.7037       0
       11773.271      -6162.3614       5758.5566       0
       11785.470      -7232.3748       6355.8671       0
       11797.669      -6726.1134       6714.8842       0
       11809.868      -2387.5297       9138.5054       0
       11822.067       8326.8805       9426.0858       0
       11834.266       6030.5457       12046.932       0
       11846.466       12387.833       13218.547       0
       11858.665      -8423.4340       15852.107       0
       11870.864       19642.526       17386.573       0
       11883.063      -9189.0784       20947.821       0
       11895.262      -5205.1261       24220.419       0
