#WAVELENGTH FLUX ERROR MASK
       7474.9795       6029.3570       33034.134       0
       7486.9677      -19853.436       31325.477       0
       7498.9560       27258.465       26294.965       0
       7510.9442       88863.527       28938.333       0
       7522.9324      -5997.4517       22849.870       0
       7534.9206      -692.81009       16458.263       0
       7546.9088      -5343.2622       15714.809       0
       7558.8971      -17244.512       10438.620       0
       7570.8853       5916.6321       8270.9125       0
       7582.8735       8.2694156       5982.1018       0
       7594.8617      -4603.2271       5412.0359       0
       7606.8499       1532.3992       4092.9256       0
       7618.8382       3864.4700       3835.1253       0
       7630.8264      -1185.6258       3445.2939       0
       7642.8146       358.90083       2915.1234       0
       7654.8028      -600.05049       2544.8594       0
       7666.7910       456.74349       2079.1108       0
       7678.7793      -939.38457       1571.9718       0
       7690.7675       293.98565       1668.9667       0
       7702.7557       2295.4164       1319.0343       0
       7714.7439       261.19702       1296.6494       0
       7726.7321      -393.67630       1017.3910       0
       7738.7204       346.63211       850.34927       0
       7750.7086      -417.10824       773.08444       0
       7762.6968       149.02853       711.32802       0
       7774.6850       25.501896       594.75528       0
       7786.6732       176.91277       612.79043       0
       7798.6615      -442.85627       512.93330       0
       7810.6497       201.82532       499.93813       0
       7822.6379       139.36660       406.12937       0
       7834.6261       186.64056       410.60303       0
       7846.6143       549.59447       359.00306       0
       7858.6025       36.428587       332.18147       0
       7870.5908       62.350953       270.47191       0
       7882.5790       130.80730       279.11107       0
       7894.5672       127.98435       252.17202       0
       7906.5554       4.9640210       245.85022       0
       7918.5436       135.10513       208.78236       0
       7930.5319      -14.592244       221.32985       0
       7942.5201      -35.430015       189.70106       0
       7954.5083       63.624185       202.76550       0
       7966.4965      -50.875740       172.96207       0
       7978.4847       63.870250       184.02143       0
       7990.4730       72.842149       161.25004       0
       8002.4612       168.67986       174.23273       0
       8014.4494      -93.014283       151.79455       0
       8026.4376      -116.69067       162.02549       0
       8038.4258      -82.976574       145.96524       0
       8050.4141      -82.090607       154.61165       0
       8062.4023       110.02668       139.86385       0
       8074.3905       148.38634       147.34154       0
       8086.3787       198.53651       135.83528       0
       8098.3669      -140.45757       143.74417       0
       8110.3552       145.82801       130.97767       0
       8122.3434       76.446997       141.87163       0
       8134.3316       83.318579       125.83768       0
       8146.3198       341.82532       135.63836       0
       8158.3080      -249.43603       150.50897       1
       8170.2963       24.380577       131.26638       1
       8182.2845       152.01687       116.77043       1
       8194.2727      -34.321564       127.06740       1
       8206.2609      -95.622081       113.45317       1
       8218.2491       297.95209       120.91059       1
       8230.2374      -27.248460       104.88445       1
       8242.2256       284.85997       126.36975       1
       8254.2138      -1.4726847       99.520265       1
       8266.2020       34.941040       115.76327       1
       8278.1902       64.166652       95.416719       1
       8290.1785       109.11370       112.53084       1
       8302.1667      -73.138061       89.657167       1
       8314.1549      -8.4199773       105.90482       1
       8326.1431       16.570609       87.181067       1
       8338.1313      -13.248199       102.79594       1
       8350.1195       70.566277       85.954960       1
       8362.1078       14.246651       101.09925       1
       8374.0960       53.475147       83.359641       1
       8386.0842       37.077944       98.781568       1
       8398.0724       101.24119       79.563403       1
       8410.0606       23.314445       95.476032       1
       8422.0489      -41.545504       78.211088       1
       8434.0371      -9.8130715       92.594940       1
       8446.0253      -42.825670       77.318502       1
       8458.0135       121.70880       91.091908       1
       8470.0017      -31.461612       73.402743       1
       8481.9900       30.167672       87.589729       1
       8493.9782      -9.8052656       72.276733       1
       8505.9664      -21.554430       86.293126       1
       8517.9546      -32.476750       69.153106       1
       8529.9428      -1.8394177       85.189955       1
       8541.9311       13.261663       67.993676       1
       8553.9193       19.284388       101.06179       1
       8565.9075       26.430735       68.966123       1
       8577.8957       61.063957       82.012873       1
       8589.8839      -15.405042       67.842254       1
       8601.8722      -19.204990       80.505771       1
       8613.8604       77.640191       67.893006       1
       8625.8486       24.604307       82.154464       1
       8637.8368       6.8130802       66.726835       1
       8649.8250       18.075627       79.619123       1
       8661.8133       27.734662       66.102878       1
       8673.8015       75.221632       78.575347       1
       8685.7897       69.572834       63.795936       1
       8697.7779       50.915734       75.789330       1
       8709.7661       10.318961       60.969959       1
       8721.7544       50.834432       89.237189       1
       8733.7426       125.60850       59.434400       1
       8745.7308      -5.0443225       69.772345       1
       8757.7190       122.75198       58.814290       1
       8769.7072       72.409966       69.384887       1
       8781.6955       5.3463074       56.567403       1
       8793.6837       41.465004       66.720659       1
       8805.6719       67.202902       55.093675       1
       8817.6601       30.360790       66.630450       1
       8829.6483       7.9281345       54.568826       1
       8841.6366       43.885867       65.289034       1
       8853.6248       26.192471       54.079782       1
       8865.6130      -42.354003       62.118482       1
       8877.6012       12.055424       52.807483       1
       8889.5894      -8.7385449       63.291910       1
       8901.5776      -4.8627491       51.944084       1
       8913.5659      -8.5574669       62.417119       1
       8925.5541       113.18923       52.654814       1
       8937.5423       66.188151       61.231767       1
       8949.5305      -72.237049       48.058970       1
       8961.5187       86.862127       60.217041       1
       8973.5070       146.47231       49.472234       1
       8985.4952       31.346653       58.483068       1
       8997.4834       48.428720       49.311396       1
       9009.4716       54.262562       57.960509       1
       9021.4598       49.930416       48.740799       1
       9033.4481      -30.609369       56.423001       1
       9045.4363       94.474965       47.524328       1
       9057.4245       63.557238       57.334545       1
       9069.4127       27.551813       47.968625       1
       9081.4009       86.445212       56.960951       1
       9093.3892       51.180988       47.454531       1
       9105.3774       54.821618       55.032546       1
       9117.3656       46.463384       44.716339       1
       9129.3538       82.576904       54.718516       1
       9141.3420       44.022218       45.439362       1
       9153.3303       37.870036       52.555796       1
       9165.3185      -9.6596040       45.613007       1
       9177.3067       146.48815       49.346563       1
       9189.2949       29.171267       43.992682       1
       9201.2831       58.715219       47.640885       1
       9213.2714      -10.932692       43.483227       1
       9225.2596       34.441594       47.939192       1
       9237.2478       74.671354       50.579251       1
       9249.2360      0.28711754       46.967462       1
       9261.2242      -13.093125       41.988790       1
       9273.2125      -22.541664       45.947357       1
       9285.2007       72.123008       42.246978       1
       9297.1889       81.741189       45.049329       1
       9309.1771       3.8341510       41.677329       1
       9321.1653       110.74551       45.207568       1
       9333.1536      -6.3193907       40.247210       1
       9345.1418       28.637575       44.585292       1
       9357.1300      -41.930798       40.938874       1
       9369.1182      -26.453181       44.395528       1
       9381.1064       123.63944       40.314591       1
       9393.0947       5.0130787       44.103263       1
       9405.0829       53.796729       39.488022       1
       9417.0711       61.486614       43.230092       1
       9429.0593       71.125771       38.962068       1
       9441.0475       41.217883       43.037091       1
       9453.0357       14.895772       39.047496       1
       9465.0240       28.500768       42.722886       1
       9477.0122       78.963713       38.147768       1
       9489.0004       20.427407       57.590522       1
       9500.9886       8.4413737       38.292673       1
       9512.9768       70.915059       49.958303       1
       9524.9651       40.271081       40.996234       1
       9536.9533       66.771514       50.714097       1
       9548.9415       51.695129       40.697965       1
       9560.9297       22.621906       40.367458       1
       9572.9179      -2.7249007       37.284886       1
       9584.9062       61.595826       40.398551       1
       9596.8944       6.9565227       41.963395       1
       9608.8826       43.481255       39.760988       1
       9620.8708       69.099858       35.725893       1
       9632.8590       63.979346       39.722877       1
       9644.8473       64.799051       36.179123       1
       9656.8355       67.751171       39.121965       1
       9668.8237      -25.888453       35.742476       1
       9680.8119       110.88218       47.370557       1
       9692.8001      -28.694842       35.270574       1
       9704.7884       67.010618       38.694738       1
       9716.7766       37.132273       34.761296       1
       9728.7648       8.8932500       38.528877       1
       9740.7530       3.8359741       34.659645       1
       9752.7412       53.100549       38.073534       1
       9764.7295       70.150546       34.645124       1
       9776.7177       115.08636       37.934898       1
       9788.7059       62.005033       34.393245       1
       9800.6941       44.181577       37.391738       1
       9812.6823       3.1791685       38.125457       1
       9824.6706       44.474001       37.085339       1
       9836.6588       42.397630       33.807123       1
       9848.6470       28.660954       36.984071       1
       9860.6352       113.97774       33.598044       1
       9872.6234       46.875981       37.532967       1
       9884.6117      0.43771034       33.917623       1
       9896.5999       114.63439       36.961040       1
       9908.5881       87.476256       33.030121       1
       9920.5763       21.710881       36.990263       1
       9932.5645       53.110749       33.262782       1
       9944.5528       48.454136       36.760162       1
       9956.5410       90.037223       38.845235       1
       9968.5292      -17.525907       35.522955       1
       9980.5174       76.693408       32.560414       1
       9992.5056       34.945752       34.514724       1
       10004.494       72.532397       32.268213       1
       10016.482       42.495800       35.372047       1
       10028.470       91.764423       31.438488       1
       10040.459       59.669876       35.517970       1
       10052.447       64.976843       31.895137       1
       10064.435       113.06807       34.974095       1
       10076.423       49.782151       31.684637       1
       10088.411       25.595740       34.978563       1
       10100.400      -12.131975       31.022407       1
       10112.388       34.252583       37.181067       1
       10124.376      -20.543994       30.289268       1
       10136.364       26.189330       36.787036       1
       10148.352      -11.381501       37.551572       1
       10160.341       6.6604178       36.242722       1
       10172.329       39.456146       30.179912       1
       10184.317      -22.930295       37.005487       1
       10196.305       53.866309       30.229813       1
       10208.294       50.404871       36.219819       1
       10220.282       15.189433       30.217334       1
       10232.270       61.398239       35.745052       1
       10244.258       67.760488       29.043193       1
       10256.246       27.973387       35.323159       1
       10268.235       31.172239       29.560931       1
       10280.223       19.570649       34.936029       1
       10292.211      -7.3460701       29.733448       1
       10304.199      -25.678664       33.936847       1
       10316.188       29.534864       29.399690       1
       10328.176      -9.8941816       33.943735       1
       10340.164       40.454573       28.533726       1
       10352.152       53.503549       35.074045       1
       10364.140       38.448521       29.030752       1
       10376.129       51.115577       34.391234       1
       10388.117       42.621216       28.910090       1
       10400.105       60.232436       34.202566       1
       10412.093       70.461729       28.770561       1
       10424.082       10.180762       34.047124       1
       10436.070       22.663135       28.565018       1
       10448.058       28.131017       34.241745       1
       10460.046       43.839189       28.759027       1
       10472.034       67.218380       34.059060       1
       10484.023       35.184436       28.820134       1
       10496.011       7.0665728       33.511743       1
       10507.999       55.524920       28.503829       1
       10519.987       54.621027       41.641143       1
       10531.976       57.222397       28.574125       1
       10543.964       32.268435       33.584947       1
       10555.952       19.601924       28.902486       1
       10567.940       83.737170       33.931394       1
       10579.928       77.849013       28.812894       1
       10591.917       55.459275       33.962636       1
       10603.905       79.749648       28.329958       1
       10615.893       34.062093       33.324089       1
       10627.881       40.471757       30.829413       1
       10639.869       51.414240       33.241806       1
       10651.858       101.45024       28.096413       1
       10663.846       32.641336       32.523413       1
       10675.834       50.383260       27.560868       1
       10687.822       65.264464       33.001651       1
       10699.811       71.000310       27.631564       1
       10711.799       55.693732       32.830939       1
       10723.787       41.253569       27.245224       1
       10735.775       29.041176       32.245274       1
       10747.763       78.930391       27.183944       1
       10759.752       77.458645       32.867189       1
       10771.740       36.121603       27.435860       1
       10783.728       88.577325       32.899945       1
       10795.716       22.186593       27.196307       1
       10807.705       82.793096       32.751260       1
       10819.693       49.888473       26.740861       1
       10831.681       64.926521       32.263952       1
       10843.669       116.14031       27.046311       1
       10855.657       55.702431       32.095214       1
       10867.646       45.433413       32.392813       1
       10879.634       59.195860       32.101597       1
       10891.622       23.081371       26.752979       1
       10903.610       56.245022       31.734343       1
       10915.599       46.412903       26.892131       1
       10927.587       85.479318       31.936491       1
       10939.575       33.321862       26.729189       1
       10951.563       35.531447       31.268775       1
       10963.551       49.370009       26.800765       1
       10975.540       41.089189       31.659691       1
       10987.528       23.998454       31.624510       1
       10999.516      -15.918217       32.064806       1
       11011.504       12.461330       25.944429       1
       11023.493       51.645565       31.669864       1
       11035.481       38.886872       26.913256       1
       11047.469       38.187489       29.032341       1
       11059.457       64.002679       27.147009       1
       11071.445       22.787732       29.694496       1
       11083.434       38.596619       26.830389       1
       11095.422       49.879911       30.081267       1
       11107.410       62.750770       27.078866       1
       11119.398       20.219473       29.707032       1
       11131.386       48.326061       26.804353       1
       11143.375       39.997062       30.029551       1
       11155.363       50.058299       26.965041       1
       11167.351       14.497282       29.729722       1
       11179.339      -6.2829394       27.050488       1
       11191.328       55.945743       29.091142       1
       11203.316       56.668488       27.004170       0
       11215.304       61.655327       30.032665       0
       11227.292       47.799866       26.932248       0
       11239.280       89.884549       29.455176       0
       11251.269       20.963917       27.283743       0
       11263.257       20.942090       29.538150       0
       11275.245       4.7713830       31.413203       0
       11287.233       57.693904       29.330697       0
       11299.222       38.273651       29.235047       0
       11311.210       34.954083       29.687396       0
       11323.198       87.485945       26.674969       0
       11335.186       55.595019       29.870814       0
       11347.174       63.728203       28.026005       0
       11359.163       50.339887       31.620372       0
       11371.151       84.482724       30.598736       0
       11383.139       11.772157       35.128262       0
       11395.127       71.949910       34.593370       0
       11407.116       96.954478       42.030495       0
       11419.104       9.6990172       42.369622       0
       11431.092       67.237177       51.993980       0
       11443.080      -36.737118       53.303316       0
       11455.068       24.464076       67.032089       0
       11467.057       140.08833       68.375577       0
       11479.045       40.815890       84.039996       0
       11491.033       7.1738486       87.298553       0
       11503.021       129.45461       105.84958       0
       11515.010       21.800298       104.27727       0
       11526.998       56.913990       129.20733       0
       11538.986      -56.349730       129.50471       0
       11550.974       135.52101       165.44946       0
       11562.962       57.902177       178.10552       0
       11574.951       274.00779       235.99283       0
       11586.939      -161.65406       352.96377       0
       11598.927      -35.660138       348.92935       0
       11610.915       274.13580       398.70943       0
       11622.903       709.83972       533.08330       0
       11634.892       988.49872       594.24130       0
       11646.880      -272.17012       784.87599       0
       11658.868       45.621700       976.97336       0
       11670.856       1516.1508       1167.6679       0
       11682.845      -62.608443       1356.9855       0
       11694.833      -158.70577       1928.7494       0
       11706.821       831.45145       2241.5909       0
       11718.809      -177.58669       3249.7743       0
       11730.797       1303.0300       3836.5557       0
       11742.786       6275.0089       5137.7260       0
       11754.774      -1425.7772       5199.0753       0
       11766.762      -5142.7692       5852.3111       0
       11778.750       2243.9389       5232.8405       0
