#WAVELENGTH FLUX ERROR MASK
       7515.7947       31751.977       27246.381       0
       7527.9938       5735.2524       19341.502       0
       7540.1928       9352.3140       17644.883       0
       7552.3919       8346.4461       12437.394       0
       7564.5910       7533.2345       11110.616       0
       7576.7901       1438.7688       7920.9419       0
       7588.9891       1073.8771       6896.2200       0
       7601.1882      -1621.4441       5171.4662       0
       7613.3873       1913.6646       5348.9406       0
       7625.5863       1523.8385       3752.5964       0
       7637.7854      -689.87488       3616.5573       0
       7649.9845       697.82153       2782.2521       0
       7662.1836       651.78701       2656.6162       0
       7674.3826       797.53594       1977.5671       0
       7686.5817       1214.8292       2059.3310       0
       7698.7808       307.84891       1376.4322       0
       7710.9799      -246.06891       1310.9997       0
       7723.1789       265.48125       1019.4668       0
       7735.3780       900.06800       996.36634       0
       7747.5771       540.88189       837.01639       0
       7759.7761       619.45310       863.16416       0
       7771.9752      -231.34217       705.95511       0
       7784.1743       403.96315       714.79341       0
       7796.3734      -114.55983       675.34086       0
       7808.5724       116.88521       619.28053       0
       7820.7715      -106.32593       482.66452       0
       7832.9706       98.159924       551.12672       0
       7845.1697       206.95506       386.97930       0
       7857.3687       300.62308       393.29291       0
       7869.5678       220.47622       318.47440       0
       7881.7669       65.273750       333.29357       0
       7893.9659       160.86400       275.08678       0
       7906.1650      -40.433048       297.54653       0
       7918.3641       268.11531       246.68150       0
       7930.5632      -53.910318       258.98695       0
       7942.7622      -59.728034       250.42677       0
       7954.9613       149.73710       234.32152       0
       7967.1604       254.83682       203.44163       0
       7979.3595      -114.52063       213.39565       0
       7991.5585       33.989486       184.40447       0
       8003.7576       163.45733       195.45294       0
       8015.9567       31.445115       173.59018       0
       8028.1557       75.413572       190.60049       0
       8040.3548      -68.879948       166.62526       0
       8052.5539       100.91776       176.48863       0
       8064.7530      -100.79374       182.18405       0
       8076.9520      -129.81607       167.15097       0
       8089.1511      -238.84185       153.09181       0
       8101.3502      -7.3607938       165.75320       0
       8113.5493      -3.7373629       163.92181       0
       8125.7483       50.790274       163.62220       0
       8137.9474       39.273819       144.51636       0
       8150.1465      -68.505557       155.77080       1
       8162.3455       24.353762       139.12674       1
       8174.5446       132.93243       147.55309       1
       8186.7437       5.8121496       134.12915       1
       8198.9428       135.36877       171.26602       1
       8211.1418       37.200478       129.09662       1
       8223.3409       170.97181       141.44434       1
       8235.5400       19.822888       122.13307       1
       8247.7391      -79.436761       132.13311       1
       8259.9381      -28.806909       115.47988       1
       8272.1372       54.358980       123.09258       1
       8284.3363      -18.881300       110.40213       1
       8296.5354       9.7840169       120.04685       1
       8308.7344       37.980566       105.97439       1
       8320.9335      -40.822027       114.42770       1
       8333.1326       57.870551       103.09542       1
       8345.3316       31.480540       122.35792       1
       8357.5307       34.148678       108.90913       1
       8369.7298       1.2518284       116.20368       1
       8381.9289       21.182649       96.894412       1
       8394.1279       6.6554784       102.95237       1
       8406.3270       6.1261973       93.916317       1
       8418.5261       58.774030       104.48599       1
       8430.7252       23.573961       92.298658       1
       8442.9242      -43.451776       96.776042       1
       8455.1233      -15.459050       88.083846       1
       8467.3224      -15.588095       99.169800       1
       8479.5214       16.188095       86.827490       1
       8491.7205      -52.597590       95.571276       1
       8503.9196       62.168657       84.144919       1
       8516.1187       56.747115       94.302989       1
       8528.3177       59.382426       82.402964       1
       8540.5168      -12.410442       90.551518       1
       8552.7159      -27.611512       80.485408       1
       8564.9150      -31.295344       85.916937       1
       8577.1140       31.125500       81.150389       1
       8589.3131      -27.522581       87.496922       1
       8601.5122       10.167499       84.118152       1
       8613.7112      -49.472882       90.134998       1
       8625.9103       59.401946       81.708909       1
       8638.1094       4.8123010       102.48352       1
       8650.3085       27.152600       79.017566       1
       8662.5075      -5.2875149       99.270179       1
       8674.7066      -20.174510       76.088108       1
       8686.9057      -42.080225       80.591317       1
       8699.1048       49.991679       74.620887       1
       8711.3038       51.042437       77.750423       1
       8723.5029       35.287013       82.166701       1
       8735.7020       60.502476       80.465393       1
       8747.9010       24.928579       70.026101       1
       8760.1001      -38.360337       76.975454       1
       8772.2992       19.066438       67.808574       1
       8784.4983      -81.163073       82.346299       1
       8796.6973       12.545320       65.898084       1
       8808.8964      -3.7999486       82.196819       1
       8821.0955      -13.407619       65.181381       1
       8833.2946       39.791810       74.499461       1
       8845.4936      -60.723236       62.702282       1
       8857.6927      -18.876314       70.468902       1
       8869.8918   0.00058462487       62.724430       1
       8882.0908       17.959602       68.195007       1
       8894.2899       28.312747       61.913140       1
       8906.4890       22.625718       68.019885       1
       8918.6881       39.820257       61.014198       1
       8930.8871       19.479634       64.128976       1
       8943.0862       31.896408       59.892141       1
       8955.2853       5.5522833       67.473330       1
       8967.4844      0.13699469       57.850335       1
       8979.6834     -0.36520279       66.974536       1
       8991.8825       50.498353       63.408085       1
       9004.0816       22.048595       63.653475       1
       9016.2806       41.083113       57.240129       1
       9028.4797       51.267935       65.934570       1
       9040.6788       18.788836       56.799728       1
       9052.8779       7.7447517       64.848849       1
       9065.0769      -3.7675787       55.935974       1
       9077.2760       10.802625       62.152366       1
       9089.4751       9.9824669       60.966206       1
       9101.6742       30.544479       63.040412       1
       9113.8732       9.2756128       59.656939       1
       9126.0723      -42.831851       58.926400       1
       9138.2714       27.257252       52.323434       1
       9150.4704       43.917071       54.587814       1
       9162.6695       37.112994       51.869964       1
       9174.8686       6.8704423       55.853769       1
       9187.0677      -23.747840       52.185721       1
       9199.2667      -36.651272       52.205525       1
       9211.4658       27.624124       50.869948       1
       9223.6649       9.0156780       52.309537       1
       9235.8640       26.043366       49.051313       1
       9248.0630       7.8377541       50.936212       1
       9260.2621      -6.0656426       48.518959       1
       9272.4612       33.334530       53.088424       1
       9284.6603       9.1800057       47.961023       1
       9296.8593       12.921537       55.962117       1
       9309.0584       18.971877       47.370163       1
       9321.2575       56.276064       50.439054       1
       9333.4565      -16.075469       48.184965       1
       9345.6556       10.049079       49.512801       1
       9357.8547       9.2674731       46.770150       1
       9370.0538       9.4409395       53.553701       1
       9382.2528       33.151026       46.087255       1
       9394.4519       54.473770       48.938987       1
       9406.6510       24.306044       45.531359       1
       9418.8501       24.184833       47.987742       1
       9431.0491       2.7677676       44.452053       1
       9443.2482       8.9822369       47.376249       1
       9455.4473       41.526375       44.454037       1
       9467.6463       57.630703       46.498803       1
       9479.8454       3.9042011       43.768176       1
       9492.0445       5.0629903       45.965370       1
       9504.2436       33.896692       46.388771       1
       9516.4426      -39.533822       45.703582       1
       9528.6417       12.292204       43.018099       1
       9540.8408       34.052594       46.035663       1
       9553.0399       22.344242       43.343254       1
       9565.2389       89.750295       45.335361       1
       9577.4380      -32.702290       41.819053       1
       9589.6371       22.718500       44.124579       1
       9601.8361       44.120877       42.309683       1
       9614.0352       40.071717       44.296893       1
       9626.2343       33.083518       41.759185       1
       9638.4334       54.093759       43.753877       1
       9650.6324       28.141101       41.362544       1
       9662.8315       10.730769       43.264877       1
       9675.0306      -9.8302140       40.332931       1
       9687.2297       2.4686537       42.691750       1
       9699.4287       2.1934851       39.945915       1
       9711.6278      -29.055877       42.161597       1
       9723.8269       49.876591       41.087284       1
       9736.0259      -5.6010246       44.079600       1
       9748.2250       41.657516       40.407816       1
       9760.4241       22.851262       41.616572       1
       9772.6232       26.040646       39.471124       1
       9784.8222       66.551032       41.660648       1
       9797.0213      -1.5522699       43.970247       1
       9809.2204      -35.530663       45.815188       1
       9821.4195       62.925320       39.358251       1
       9833.6185       41.150422       47.000238       1
       9845.8176       19.280765       38.995291       1
       9858.0167      -23.318908       41.979268       1
       9870.2157       44.959356       39.014828       1
       9882.4148       37.878874       41.241505       1
       9894.6139       15.302260       39.396737       1
       9906.8130      -2.4618909       40.337688       1
       9919.0120       10.119609       37.838145       1
       9931.2111       48.331231       40.447568       1
       9943.4102      -3.3445135       37.486516       1
       9955.6093       14.277754       39.764657       1
       9967.8083       8.4632046       37.163606       1
       9980.0074       26.256430       39.421259       1
       9992.2065       15.507528       36.325202       1
       10004.406       1.0467853       38.473935       1
       10016.605       20.894602       36.748466       1
       10028.804      -22.244181       38.234447       1
       10041.003       10.778286       36.455081       1
       10053.202       11.663897       39.937106       1
       10065.401       6.1703866       37.141407       1
       10077.600       23.961657       42.512484       1
       10089.799       37.507039       39.787553       1
       10101.998      -12.649148       37.966610       1
       10114.197       1.5562585       36.079927       1
       10126.396      -15.612905       38.067183       1
       10138.595       49.315623       36.714768       1
       10150.794      0.37055700       40.359586       1
       10162.993       17.854052       35.584724       1
       10175.193       51.369597       37.792181       1
       10187.392       36.057504       35.448248       1
       10199.591       6.8892240       37.152467       1
       10211.790       8.5340295       34.936302       1
       10223.989       9.4690643       36.672301       1
       10236.188       13.389926       34.643867       1
       10248.387       11.710681       42.833953       1
       10260.586     -0.40719822       34.023238       1
       10272.785       27.320999       38.907464       1
       10284.984      -7.6589536       33.743948       1
       10297.183       14.203923       35.688245       1
       10309.382       12.149399       33.623305       1
       10321.581       7.4108482       35.115986       1
       10333.781       1.1742996       33.638538       1
       10345.980       3.6312986       35.124314       1
       10358.179       30.202103       34.779788       1
       10370.378       21.385770       35.591191       1
       10382.577       26.570036       33.441783       1
       10394.776       24.748827       35.612581       1
       10406.975       4.6695308       33.102792       1
       10419.174      -17.828451       34.519276       1
       10431.373      -16.598006       32.720079       1
       10443.572       33.033598       35.206833       1
       10455.771       7.7163883       33.061920       1
       10467.970       2.5979096       34.327258       1
       10480.169       17.331755       33.289758       1
       10492.368       21.402691       35.248435       1
       10504.568       18.943686       33.349822       1
       10516.767       21.019675       34.825357       1
       10528.966       34.381490       34.830214       1
       10541.165       21.664958       35.277294       1
       10553.364       29.720785       33.306031       1
       10565.563       3.6944085       34.742266       1
       10577.762       21.721990       33.022996       1
       10589.961       16.326205       34.973346       1
       10602.160       41.502310       33.457862       1
       10614.359       6.1808198       34.407067       1
       10626.558      -24.977637       32.263067       1
       10638.757       17.134947       35.471180       1
       10650.956       31.733739       32.606189       1
       10663.155      -2.8036866       33.330760       1
       10675.355       22.545953       31.790158       1
       10687.554       17.234751       33.924483       1
       10699.753       7.7860751       31.842997       1
       10711.952      -5.9906248       34.313853       1
       10724.151       34.865539       31.683824       1
       10736.350       17.897554       35.453164       1
       10748.549       23.059566       31.698489       1
       10760.748       29.598087       33.622406       1
       10772.947       23.862705       31.945607       1
       10785.146       30.708200       37.695079       1
       10797.345       4.5870205       31.291930       1
       10809.544       8.1575205       33.017033       1
       10821.743       21.276498       31.203348       1
       10833.943       14.550793       32.998281       1
       10846.142       19.617661       37.099698       1
       10858.341       3.5124195       32.745204       1
       10870.540       16.866363       37.568602       1
       10882.739       2.0140671       32.853429       1
       10894.938       5.0609946       31.905348       1
       10907.137       6.0896853       32.801743       1
       10919.336       8.1495737       31.147582       1
       10931.535      -5.9072814       32.580284       1
       10943.734       20.604190       31.258451       1
       10955.933       12.403885       32.899877       1
       10968.132       9.1905099       32.520956       1
       10980.331       15.529157       32.800080       1
       10992.530       6.4231143       30.597083       1
       11004.730       20.737661       32.594319       1
       11016.929       20.094772       30.663138       1
       11029.128       13.656013       32.405725       1
       11041.327       6.7219039       30.458657       1
       11053.526      -21.064463       33.285637       1
       11065.725       14.454298       30.433556       1
       11077.924      -6.4788924       31.851351       1
       11090.123       16.200569       30.540515       1
       11102.322       6.0286133       32.324261       1
       11114.521       21.620009       30.723458       1
       11126.720       12.319968       32.032123       1
       11138.919       46.479817       31.285515       1
       11151.118       8.3683516       32.440380       1
       11163.317       17.577065       30.854644       1
       11175.517       13.868468       32.229945       1
       11187.716       20.104235       30.622389       1
       11199.915       3.9795966       32.454159       1
       11212.114       13.717175       30.890376       0
       11224.313       13.244492       33.763764       0
       11236.512       20.867485       33.790636       0
       11248.711       1.4445429       32.200925       0
       11260.910       17.036506       31.959635       0
       11273.109       19.251635       32.419910       0
       11285.308       14.588990       30.681368       0
       11297.507       11.650815       32.721206       0
       11309.706       7.7858624       31.754736       0
       11321.905       6.5214515       34.595931       0
       11334.104       9.9694886       34.061945       0
       11346.304      -13.843734       37.902821       0
       11358.503       13.851633       39.306631       0
       11370.702       44.114648       49.455506       0
       11382.901       6.1563416       47.275105       0
       11395.100      -9.4927103       64.921012       0
       11407.299       22.822726       61.121510       0
       11419.498      -38.833123       72.951787       0
       11431.697      -3.3538520       78.694610       0
       11443.896      -30.257821       93.695869       0
       11456.095       52.507368       100.25214       0
       11468.294       43.581951       122.43298       0
       11480.493      -25.272670       121.72018       0
       11492.692      -25.783666       143.45133       0
       11504.892      -28.747118       166.11008       0
       11517.091       7.6651803       189.62760       0
       11529.290       129.67856       212.41955       0
       11541.489       35.767501       274.54105       0
       11553.688      -226.08927       315.96254       0
       11565.887       205.05273       416.55525       0
       11578.086       25.263636       521.78708       0
       11590.285       208.27525       672.58198       0
       11602.484       270.12312       834.55537       0
       11614.683      -459.86299       965.76121       0
       11626.882       701.62144       1261.6913       0
       11639.081       131.70300       1455.1651       0
       11651.280       873.35047       1917.2392       0
       11663.479      -110.45764       2509.4987       0
       11675.679       2965.3395       3123.6500       0
       11687.878       1856.4446       4335.5962       0
       11700.077      -2653.0077       5125.8948       0
       11712.276      -1933.7875       6067.4831       0
       11724.475       295.74215       6093.2645       0
       11736.674      -78.904822       6192.7818       0
       11748.873       7815.1202       5917.1755       0
       11761.072      -1334.8252       6002.1767       0
       11773.271       1946.0419       5797.3923       0
       11785.470       1450.4812       6510.7589       0
       11797.669       3825.4331       6872.9800       0
       11809.868       5266.1473       8480.5398       0
       11822.067       894.86871       9411.0012       0
       11834.266      -6129.1269       11969.811       0
       11846.466       4966.0370       14613.452       0
       11858.665      -74.534873       16080.069       0
       11870.864       3991.1370       17327.349       0
       11883.063      -6763.8185       21002.426       0
       11895.262       3671.1694       24362.889       0
