#WAVELENGTH FLUX ERROR MASK
       10262.861      -3882.6244       0.0000000       0
       10286.575      -3342.8842       0.0000000       0
       10310.290      -2926.1166       0.0000000       0
       10334.005      -2587.5717       0.0000000       0
       10357.720      -2333.9127       0.0000000       0
       10381.435      -2113.9247       0.0000000       0
       10405.150      -1888.4904       0.0000000       0
       10428.865      -1657.8026       0.0000000       0
       10452.579      -1395.3434       0.0000000       0
       10476.294      -1132.7858       0.0000000       0
       10500.009      -893.99395       0.0000000       0
       10523.724      -683.15686       0.0000000       0
       10547.439      -509.09815       0.0000000       0
       10571.154      -361.54855       0.0000000       0
       10594.869      -232.24492       0.0000000       0
       10618.583      -104.87687       0.0000000       0
       10642.298       19.366748       0.0000000       0
       10666.013       137.83231       0.0000000       0
       10689.728       242.44326       0.0000000       0
       10713.443       334.92419       0.0000000       0
       10737.158       402.19058       0.0000000       0
       10760.873       451.63763       0.0000000       0
       10784.587       490.02530       0.0000000       0
       10808.302       523.53738       0.0000000       0
       10832.017       557.70630       0.0000000       0
       10855.732       595.05276       0.0000000       0
       10879.447       638.10271       0.0000000       0
       10903.162       685.29563       0.0000000       0
       10926.877       736.14095       0.0000000       0
       10950.591       784.73567       0.0000000       0
       10974.306       828.08262       0.0000000       0
       10998.021       864.66574       0.0000000       0
       11021.736       894.00620       0.0000000       1
       11045.451       919.53879       0.0000000       1
       11069.166       943.76469       0.0000000       1
       11092.881       970.30641       0.0000000       1
       11116.595       1002.6088       0.0000000       1
       11140.310       1040.8331       0.0000000       1
       11164.025       1082.9998       0.0000000       1
       11187.740       1125.5633       0.0000000       1
       11211.455       1168.2381       0.0000000       1
       11235.170       1209.4222       0.0000000       1
       11258.885       1249.3541       0.0000000       1
       11282.599       1284.4324       0.0000000       1
       11306.314       1317.3517       0.0000000       1
       11330.029       1343.9727       0.0000000       1
       11353.744       1366.9034       0.0000000       1
       11377.459       1383.1800       0.0000000       1
       11401.174       1400.3133       0.0000000       1
       11424.889       1417.0315       0.0000000       1
       11448.603       1436.0190       0.0000000       1
       11472.318       1456.7801       0.0000000       1
       11496.033       1477.3655       0.0000000       1
       11519.748       1496.6837       0.0000000       1
       11543.463       1514.1837       0.0000000       1
       11567.178       1528.2546       0.0000000       1
       11590.893       1537.6318       0.0000000       1
       11614.607       1539.6587       0.0000000       1
       11638.322       1536.4015       0.0000000       1
       11662.037       1531.0030       0.0000000       1
       11685.752       1522.1482       0.0000000       1
       11709.467       1509.5455       0.0000000       1
       11733.182       1494.9340       0.0000000       1
       11756.897       1478.0303       0.0000000       1
       11780.611       1460.7977       0.0000000       1
       11804.326       1440.6701       0.0000000       1
       11828.041       1419.0493       0.0000000       1
       11851.756       1393.5966       0.0000000       1
       11875.471       1362.4078       0.0000000       1
       11899.186       1259.5189       0.0000000       1
       11922.901       1214.1824       0.0000000       1
       11946.615       1160.3858       0.0000000       1
       11970.330       1120.2413       0.0000000       1
       11994.045       1083.0997       0.0000000       1
       12017.760       1075.4589       0.0000000       1
       12041.475       1077.9430       0.0000000       1
       12065.190       1092.3829       0.0000000       1
       12088.905       1113.1968       0.0000000       1
       12112.619       1134.5972       0.0000000       1
       12136.334       1156.8408       0.0000000       1
       12160.049       1175.5410       0.0000000       1
       12183.764       1184.2239       0.0000000       1
       12207.479       1176.1695       0.0000000       1
       12231.194       1145.3919       0.0000000       1
       12254.909       1102.2064       0.0000000       1
       12278.623       1028.3362       0.0000000       1
       12302.338       971.05164       0.0000000       1
       12326.053       895.08719       0.0000000       1
       12349.768       873.11388       0.0000000       1
       12373.483       846.97652       0.0000000       1
       12397.198       860.20630       0.0000000       1
       12420.913       889.91182       0.0000000       1
       12444.627       943.66613       0.0000000       1
       12468.342       1038.9078       0.0000000       1
       12492.057       1159.8738       0.0000000       1
       12515.772       1305.8582       0.0000000       1
       12539.487       1414.1052       0.0000000       1
       12563.202       1518.9504       0.0000000       1
       12586.917       1560.5605       0.0000000       1
       12610.631       1578.0337       0.0000000       1
       12634.346       1559.3916       0.0000000       1
       12658.061       1521.0616       0.0000000       1
       12681.776       1454.9081       0.0000000       1
       12705.491       1367.5480       0.0000000       1
       12729.206       1301.1490       0.0000000       1
       12752.921       1253.8456       0.0000000       1
       12776.636       1221.6956       0.0000000       1
       12800.350       1198.3332       0.0000000       1
       12824.065       1193.7099       0.0000000       1
       12847.780       1202.9997       0.0000000       1
       12871.495       1208.9241       0.0000000       1
       12895.210       1203.7267       0.0000000       1
       12918.925       1189.3942       0.0000000       1
       12942.640       1165.7010       0.0000000       1
       12966.354       1128.5191       0.0000000       1
       12990.069       1086.5040       0.0000000       1
       13013.784       1071.6327       0.0000000       1
       13037.499       1069.3602       0.0000000       1
       13061.214       1064.0919       0.0000000       1
       13084.929       1054.7894       0.0000000       1
       13108.644       1053.2594       0.0000000       1
       13132.358       1050.2880       0.0000000       1
       13156.073       1046.3002       0.0000000       1
       13179.788       1034.0348       0.0000000       1
       13203.503       1028.0849       0.0000000       1
       13227.218       1017.1886       0.0000000       1
       13250.933       1015.1683       0.0000000       1
       13274.648       1022.6676       0.0000000       1
       13298.362       1037.0611       0.0000000       1
       13322.077       1057.6826       0.0000000       1
       13345.792       1082.2145       0.0000000       1
       13369.507       1100.7409       0.0000000       1
       13393.222       1099.8167       0.0000000       1
       13416.937       1089.8110       0.0000000       1
       13440.652       1096.1396       0.0000000       1
       13464.366       1109.3103       0.0000000       1
       13488.081       1129.5152       0.0000000       1
       13511.796       1158.8448       0.0000000       1
       13535.511       1192.8556       0.0000000       1
       13559.226       1235.2986       0.0000000       1
       13582.941       1274.7692       0.0000000       1
       13606.656       1313.1374       0.0000000       1
       13630.370       1334.1492       0.0000000       1
       13654.085       1361.6052       0.0000000       1
       13677.800       1393.2502       0.0000000       1
       13701.515       1427.4227       0.0000000       1
       13725.230       1426.0223       0.0000000       1
       13748.945       1406.0922       0.0000000       1
       13772.660       1358.2248       0.0000000       1
       13796.374       1309.0489       0.0000000       1
       13820.089       1295.6991       0.0000000       1
       13843.804       1319.6186       0.0000000       1
       13867.519       1362.5508       0.0000000       1
       13891.234       1413.1648       0.0000000       1
       13914.949       1457.8063       0.0000000       1
       13938.664       1507.7586       0.0000000       1
       13962.378       1456.8469       0.0000000       1
       13986.093       1517.8212       0.0000000       1
       14009.808       1586.5729       0.0000000       1
       14033.523       1660.5073       0.0000000       1
       14057.238       1690.5624       0.0000000       1
       14080.953       1707.5777       0.0000000       1
       14104.668       1707.4844       0.0000000       1
       14128.382       1709.1391       0.0000000       1
       14152.097       1706.0110       0.0000000       1
       14175.812       1707.2080       0.0000000       1
       14199.527       1657.1842       0.0000000       1
       14223.242       1572.0443       0.0000000       1
       14246.957       1465.2240       0.0000000       1
       14270.672       1356.2587       0.0000000       1
       14294.386       1263.1374       0.0000000       1
       14318.101       1169.3794       0.0000000       1
       14341.816       1126.3034       0.0000000       1
       14365.531       1115.4897       0.0000000       1
       14389.246       1144.3684       0.0000000       1
       14412.961       1201.9718       0.0000000       1
       14436.676       1232.2176       0.0000000       1
       14460.390       1253.1267       0.0000000       1
       14484.105       1226.0672       0.0000000       1
       14507.820       1179.9831       0.0000000       1
       14531.535       1094.2763       0.0000000       1
       14555.250       972.29615       0.0000000       1
       14578.965       808.03601       0.0000000       1
       14602.680       596.21177       0.0000000       1
       14626.394       383.30585       0.0000000       1
       14650.109       144.16911       0.0000000       1
       14673.824      -70.533021       0.0000000       1
       14697.539      -355.17235       0.0000000       1
       14721.254      -739.38184       0.0000000       1
       14744.969      -1430.8961       0.0000000       1
       14768.684      -2100.7457       0.0000000       1
       14792.398      -2905.4631       0.0000000       1
       14816.113      -3138.4685       0.0000000       1
       14839.828      -3334.0750       0.0000000       1
       14863.543      -3068.8714       0.0000000       1
       14887.258      -2648.5390       0.0000000       1
       14910.973      -2341.2548       0.0000000       1
       14934.688      -1944.3938       0.0000000       1
       14958.402      -1346.4414       0.0000000       1
       14982.117      -601.90783       0.0000000       1
       15005.832      -103.48613       0.0000000       1
       15029.547       292.48804       0.0000000       1
       15053.262       511.22649       0.0000000       1
       15076.977       676.87235       0.0000000       1
       15100.692       730.42490       0.0000000       1
       15124.406       762.33275       0.0000000       1
       15148.121       774.34949       0.0000000       1
       15171.836       779.63741       0.0000000       1
       15195.551       766.16318       0.0000000       1
       15219.266       736.92615       0.0000000       1
       15242.981       684.82142       0.0000000       1
       15266.696       631.95197       0.0000000       1
       15290.410       586.84470       0.0000000       1
       15314.125       539.08467       0.0000000       1
       15337.840       483.64270       0.0000000       1
       15361.555       401.54815       0.0000000       1
       15385.270       313.92722       0.0000000       1
       15408.985       233.60311       0.0000000       1
       15432.700       190.82198       0.0000000       1
       15456.414       178.59670       0.0000000       1
       15480.129       198.82255       0.0000000       1
       15503.844       238.23291       0.0000000       1
       15527.559       271.07594       0.0000000       1
       15551.274       311.29406       0.0000000       1
       15574.989       359.57891       0.0000000       1
       15598.704       415.58634       0.0000000       1
       15622.418       460.79487       0.0000000       1
       15646.133       495.79686       0.0000000       1
       15669.848       522.57724       0.0000000       1
       15693.563       549.88126       0.0000000       1
       15717.278       569.28176       0.0000000       1
       15740.993       599.61840       0.0000000       1
       15764.708       629.07580       0.0000000       1
       15788.422       655.75921       0.0000000       1
       15812.137       630.00127       0.0000000       1
       15835.852       578.45851       0.0000000       1
       15859.567       515.62975       0.0000000       1
       15883.282       443.88052       0.0000000       1
       15906.997       374.71357       0.0000000       1
       15930.712       294.17564       0.0000000       1
       15954.426       207.88999       0.0000000       1
       15978.141       106.06175       0.0000000       1
       16001.856       9.5029553       0.0000000       1
       16025.571      -133.28452       0.0000000       1
       16049.286      -232.48462       0.0000000       1
       16073.001      -356.25782       0.0000000       1
       16096.716      -535.89019       0.0000000       1
       16120.430      -805.77905       0.0000000       1
       16144.145      -1106.6731       0.0000000       1
       16167.860      -1396.2145       0.0000000       1
       16191.575      -1540.5104       0.0000000       1
       16215.290      -1590.1685       0.0000000       1
       16239.005      -1516.9804       0.0000000       1
       16262.720      -1369.2561       0.0000000       1
       16286.434      -1217.4238       0.0000000       1
       16310.149      -1028.7207       0.0000000       1
       16333.864      -772.23190       0.0000000       1
       16357.579      -488.74833       0.0000000       1
       16381.294      -271.85388       0.0000000       1
       16405.009      -123.23447       0.0000000       1
       16428.724      -33.689189       0.0000000       1
       16452.438       19.243128       0.0000000       1
       16476.153       43.443467       0.0000000       1
       16499.868       56.334761       0.0000000       1
       16523.583       65.438063       0.0000000       1
       16547.298       73.493170       0.0000000       1
       16571.013       77.759008       0.0000000       1
       16594.728       78.088870       0.0000000       1
       16618.442       72.869179       0.0000000       1
       16642.157       65.315218       0.0000000       1
       16665.872       51.239262       0.0000000       1
       16689.587       31.514801       0.0000000       1
       16713.302       11.366781       0.0000000       1
       16737.017      -11.548069       0.0000000       1
       16760.732      -34.182137       0.0000000       0
       16784.446      -54.173043       0.0000000       0
       16808.161      -76.984207       0.0000000       0
       16831.876      -103.15807       0.0000000       0
       16855.591      -131.39244       0.0000000       0
       16879.306      -160.35814       0.0000000       0
       16903.021      -193.09542       0.0000000       0
       16926.736      -236.33078       0.0000000       0
       16950.450      -294.24626       0.0000000       0
       16974.165      -374.85296       0.0000000       0
       16997.880      -467.87694       0.0000000       0
       17021.595      -558.24236       0.0000000       0
       17045.310      -624.52090       0.0000000       0
       17069.025      -676.09447       0.0000000       0
       17092.740      -732.66645       0.0000000       0
       17116.455      -801.98563       0.0000000       0
       17140.169      -888.05612       0.0000000       0
       17163.884      -967.80047       0.0000000       0
       17187.599      -1050.5277       0.0000000       0
       17211.314      -1159.9293       0.0000000       0
       17235.029      -1308.4523       0.0000000       0
       17258.744      -1461.7053       0.0000000       0
       17282.459      -1563.7525       0.0000000       0
       17306.173      -1605.0395       0.0000000       0
       17329.888      -1615.9796       0.0000000       0
       17353.603      -1650.1494       0.0000000       0
       17377.318      -1699.6472       0.0000000       0
       17401.033      -1735.4528       0.0000000       0
       17424.748      -1804.0257       0.0000000       0
       17448.463      -2055.8586       0.0000000       0
       17472.177      -2615.9757       0.0000000       0
       17495.892      -3696.1129       0.0000000       0
       17519.607      -5621.9161       0.0000000       0
       17543.322      -8807.7793       0.0000000       0
       17567.037      -13821.619       0.0000000       0
       17590.752      -16971.214       0.0000000       0
       17614.467      -17802.887       0.0000000       0
       17638.181  -8.8718546e+27       0.0000000       0
