#WAVELENGTH FLUX ERROR MASK
       10174.198      -431.50480       0.0000000       0
       10197.205      -394.24202       0.0000000       0
       10220.212      -344.61834       0.0000000       0
       10243.220      -295.07842       0.0000000       0
       10266.227      -251.59389       0.0000000       0
       10289.234      -215.15046       0.0000000       0
       10312.241      -187.90344       0.0000000       0
       10335.249      -166.31740       0.0000000       0
       10358.256      -149.69473       0.0000000       0
       10381.263      -135.86147       0.0000000       0
       10404.270      -122.37784       0.0000000       0
       10427.278      -109.28045       0.0000000       0
       10450.285      -94.024384       0.0000000       0
       10473.292      -79.441400       0.0000000       0
       10496.299      -66.254114       0.0000000       0
       10519.307      -55.210799       0.0000000       0
       10542.314      -46.771994       0.0000000       0
       10565.321      -40.121724       0.0000000       0
       10588.328      -35.043003       0.0000000       0
       10611.336      -30.960208       0.0000000       0
       10634.343      -27.413038       0.0000000       0
       10657.350      -24.267990       0.0000000       0
       10680.357      -20.940422       0.0000000       0
       10703.365      -17.774650       0.0000000       0
       10726.372      -14.667218       0.0000000       0
       10749.379      -11.963926       0.0000000       0
       10772.386      -9.7586107       0.0000000       0
       10795.394      -8.0044140       0.0000000       0
       10818.401      -6.7105405       0.0000000       0
       10841.408      -5.7217374       0.0000000       0
       10864.415      -4.9967508       0.0000000       0
       10887.423      -4.4420674       0.0000000       0
       10910.430      -4.0000624       0.0000000       0
       10933.437      -3.6372628       0.0000000       0
       10956.444      -3.3074269       0.0000000       0
       10979.452      -3.0070222       0.0000000       0
       11002.459      -2.7270793       0.0000000       1
       11025.466      -2.4689886       0.0000000       1
       11048.473      -2.2426897       0.0000000       1
       11071.481      -2.0430613       0.0000000       1
       11094.488      -1.8765760       0.0000000       1
       11117.495      -1.7364485       0.0000000       1
       11140.502      -1.6179089       0.0000000       1
       11163.510      -1.5164831       0.0000000       1
       11186.517      -1.4260238       0.0000000       1
       11209.524      -1.3443695       0.0000000       1
       11232.531      -1.2676583       0.0000000       1
       11255.539      -1.1950529       0.0000000       1
       11278.546      -1.1274147       0.0000000       1
       11301.553      -1.0631222       0.0000000       1
       11324.560      -1.0043026       0.0000000       1
       11347.568      -1.1154741       0.0000000       1
       11370.575       47.232812       19.540120       1
       11393.582       65.599384       19.471634       1
       11416.589       53.122599       19.364622       1
       11439.597       54.407161       19.128300       1
       11462.604       46.822559       19.163040       1
       11485.611       53.354248       18.898653       1
       11508.618       51.635656       19.145955       1
       11531.626       44.448071       18.558839       1
       11554.633       36.364838       18.724980       1
       11577.640       60.200369       18.756071       1
       11600.647       51.415604       18.767003       1
       11623.655       55.623456       18.371452       1
       11646.662       39.953525       18.237800       1
       11669.669       67.047004       18.210762       1
       11692.676       113.35407       24.457869       1
       11715.684       64.156601       17.795980       1
       11738.691       101.76811       23.806402       1
       11761.698       59.297301       17.334826       1
       11784.705       111.80182       23.275036       1
       11807.713       55.078462       16.910206       1
       11830.720       87.545515       20.208570       1
       11853.727       107.27846       22.337231       1
       11876.734       114.81517       22.691502       1
       11899.742       117.62511       22.112058       1
       11922.749       98.244119       21.996664       1
       11945.756       130.09033       22.013454       1
       11968.763       125.08997       22.167429       1
       11991.771       132.51819       21.746381       1
       12014.778       138.13127       22.036914       1
       12037.785       140.60902       21.558237       1
       12060.792       157.94510       21.900008       1
       12083.800       128.82565       21.180653       1
       12106.807       141.42777       21.526511       1
       12129.814       133.03522       21.000385       1
       12152.821       123.34355       20.828291       1
       12175.829       114.36810       20.523591       1
       12198.836       109.25737       20.664714       1
       12221.843       94.428404       20.171641       1
       12244.850       80.922846       21.285644       1
       12267.858       92.608935       19.881310       1
       12290.865       99.966733       20.070211       1
       12313.872       80.904727       19.483347       1
       12336.879       89.458954       19.794603       1
       12359.887       98.626666       19.490192       1
       12382.894       83.430761       19.928048       1
       12405.901       87.296599       19.208291       1
       12428.908       87.954872       19.406939       1
       12451.916       80.497968       18.963046       1
       12474.923       59.456977       19.093594       1
       12497.930       91.960182       18.940892       1
       12520.937       80.766574       19.409897       1
       12543.945       79.494519       18.667730       1
       12566.952       83.343939       19.029402       1
       12589.959       87.734329       18.691674       1
       12612.966       72.889332       18.680553       1
       12635.974       93.734652       18.728472       1
       12658.981       82.457032       18.784357       1
       12681.988       92.848467       18.573643       1
       12704.995       67.828079       18.395671       1
       12728.002       88.682671       18.295614       1
       12751.010       93.042315       18.497057       1
       12774.017       56.917499       15.665017       1
       12797.024       87.700329       18.496455       1
       12820.031       69.544597       17.620811       1
       12843.039       92.281076       18.057939       1
       12866.046       84.541466       17.640925       1
       12889.053       91.294530       18.319796       1
       12912.060       81.429110       17.561592       1
       12935.068       83.958640       17.800453       1
       12958.075       97.551610       17.476750       1
       12981.082       76.097147       17.503244       1
       13004.089       95.243615       17.299874       1
       13027.097       84.524488       17.338482       1
       13050.104       79.877088       16.921685       1
       13073.111       82.235609       17.153580       1
       13096.118       82.492558       16.840351       1
       13119.126       77.879077       16.979189       1
       13142.133       81.530510       16.664171       1
       13165.140       63.476219       16.641374       1
       13188.147       83.062070       16.560723       1
       13211.155       86.814285       16.747679       1
       13234.162       82.253434       16.340671       1
       13257.169       77.232497       16.458023       1
       13280.176       74.357127       16.079432       1
       13303.184       77.638757       16.350572       1
       13326.191       71.311967       16.071288       1
       13349.198       78.984724       16.299846       1
       13372.205       85.267599       16.121253       1
       13395.213       83.335886       16.266588       1
       13418.220       84.109258       15.890671       1
       13441.227       86.767659       16.177757       1
       13464.234       81.025413       15.732319       1
       13487.242       66.266476       15.736177       1
       13510.249       66.368679       15.443545       1
       13533.256       73.607556       15.698321       1
       13556.263       78.656219       15.542166       1
       13579.271       84.062629       16.150394       1
       13602.278       73.171543       15.539976       1
       13625.285       71.024659       15.682091       1
       13648.292       67.498391       15.424630       1
       13671.300       74.665493       15.762058       1
       13694.307       61.970149       15.267950       1
       13717.314       67.391206       15.667833       1
       13740.321       80.515747       15.559797       1
       13763.329       78.613754       15.767442       1
       13786.336       81.702168       15.542555       1
       13809.343       86.939361       15.921075       1
       13832.350       79.252912       15.528255       1
       13855.358       77.351571       15.737059       1
       13878.365       83.935572       15.558097       1
       13901.372       78.134260       15.669118       1
       13924.379       71.699461       15.407326       1
       13947.387       77.925157       15.663616       1
       13970.394       78.936886       15.355369       1
       13993.401       62.108251       15.304094       1
       14016.408       81.423187       15.276981       1
       14039.416       82.068508       15.466296       1
       14062.423       81.752844       15.070302       1
       14085.430       76.429888       15.183974       1
       14108.437       79.985051       14.915518       1
       14131.445       71.187533       15.317429       1
       14154.452       69.749518       14.765247       1
       14177.459       73.508494       15.032627       1
       14200.466       78.597112       14.810180       1
       14223.474       79.286507       15.054303       1
       14246.481       64.044626       12.570751       1
       14269.488       66.111356       14.751607       1
       14292.495       48.911478       12.331734       1
       14315.503       62.844854       14.635618       1
       14338.510       70.717152       14.438928       1
       14361.517       74.259336       14.633438       1
       14384.524       67.203464       14.346687       1
       14407.532       78.418397       14.626127       1
       14430.539       84.242459       14.474272       1
       14453.546       58.337143       12.420301       1
       14476.553       81.097401       14.421008       1
       14499.561       72.937103       14.503537       1
       14522.568       74.962498       5214821.6       1
       14545.575       69.675526       14.474215       1
       14568.582       64.598268       14.261221       1
       14591.590       80.058241       14.872792       1
       14614.597       68.792860       14.247429       1
       14637.604       78.166660       14.541334       1
       14660.611       70.298818       15.155729       1
       14683.619       71.775913       14.546376       1
       14706.626       79.499386       14.401290       1
       14729.633       63.987043       14.429678       1
       14752.640       50.408027       12.150340       1
       14775.648       66.752521       14.531625       1
       14798.655       67.939202       14.316826       1
       14821.662       62.538292       14.487926       1
       14844.669       60.931158       14.150495       1
       14867.677       75.783250       14.530282       1
       14890.684       64.397748       14.139597       1
       14913.691       85.081794       14.514899       1
       14936.698       63.301249       14.049765       1
       14959.706       55.332888       13.990695       1
       14982.713       58.291369       13.858831       1
       15005.720       66.410783       14.051758       1
       15028.727       51.910778       12.294947       1
       15051.735       70.950070       14.205704       1
       15074.742       73.373321       13.928153       1
       15097.749       63.503659       14.135106       1
       15120.756       69.475669       13.899936       1
       15143.764       46.699973       14.602470       1
       15166.771       82.585048       14.015241       1
       15189.778       74.397291       14.526997       1
       15212.785       81.659947       14.783276       1
       15235.793       72.364642       14.146823       1
       15258.800       72.442705       14.681095       1
       15281.807       61.154109       14.031570       1
       15304.814       62.471394       13.742011       1
       15327.822       76.543254       14.373781       1
       15350.829       74.729279       13.911863       1
       15373.836       66.244280       14.137117       1
       15396.843       75.400066       13.828100       1
       15419.851       66.264486       14.638676       1
       15442.858       71.835661       13.914284       1
       15465.865       48.324583       14.231266       1
       15488.872       68.143697       13.807472       1
       15511.880       79.793394       14.594069       1
       15534.887       65.350041       13.853601       1
       15557.894       85.345065       14.658674       1
       15580.901       66.118334       13.833932       1
       15603.909       85.812351       14.430748       1
       15626.916       93.646011       13.997101       1
       15649.923       96.804385       14.831442       1
       15672.930       125.42479       14.587655       1
       15695.938       135.41545       15.770135       1
       15718.945       145.54727       14.683867       1
       15741.952       166.69272       15.047416       1
       15764.959       178.12683       15.005524       1
       15787.967       176.98007       15.502752       1
       15810.974       187.15246       15.069554       1
       15833.981       174.75304       15.517010       1
       15856.988       170.44901       14.894286       1
       15879.996       137.25100       14.897253       1
       15903.003       131.36362       14.739708       1
       15926.010       105.53916       14.469086       1
       15949.017       85.486175       13.946844       1
       15972.025       86.529696       14.395564       1
       15995.032       85.758346       14.287714       1
       16018.039       80.411970       14.306271       1
       16041.046       82.224737       14.062076       1
       16064.054       79.951181       14.332829       1
       16087.061       78.885937       13.991030       1
       16110.068       86.156888       14.473691       1
       16133.075       79.182199       5037894.9       1
       16156.083       88.479548       14.755044       1
       16179.090       85.337169       14.243127       1
       16202.097       89.804220       14.661594       1
       16225.104       88.799108       14.443933       1
       16248.112       84.541779       14.726041       1
       16271.119       74.992004       14.385283       1
       16294.126       51.698833       12.450801       1
       16317.133       77.045856       14.344686       1
       16340.141       67.941117       14.658944       1
       16363.148       74.855414       14.449740       1
       16386.155       52.087065       14.871092       1
       16409.162       65.362535       14.435606       1
       16432.170       71.936112       14.864474       1
       16455.177       66.990186       14.543476       1
       16478.184       71.812430       14.958470       1
       16501.191       66.640045       14.754375       1
       16524.199       61.780844       15.176474       1
       16547.206       66.734156       15.284685       1
       16570.213       70.404405       15.849435       1
       16593.220       73.746457       16.417503       1
       16616.228       36.169804       17.533235       1
       16639.235       73.755888       18.283458       1
       16662.242       68.943894       19.985015       1
       16685.249       65.250254       21.250745       1
       16708.256       76.356464       23.883635       1
       16731.264       56.742808       25.323293       1
       16754.271       50.895928       29.892290       0
       16777.278       73.999282       32.795613       0
       16800.285       63.290311       38.002452       0
       16823.293       71.717339       42.322204       0
       16846.300       46.382170       42.620190       0
       16869.307       62.574127       54.467788       0
       16892.314       75.018586       62.303127       0
       16915.322       79.561807       67.844526       0
       16938.329       137.87428       79.699816       0
       16961.336       115.97526       84.616407       0
       16984.343       149.89350       85.280971       0
       17007.351       154.73919       107.53782       0
       17030.358    -0.074949601       99.155629       0
       17053.365       73.230785       127.88093       0
       17076.372       93.865415       125.55966       0
       17099.380      -18.972489       158.32569       0
       17122.387       175.33249       183.89171       0
       17145.394       28.490752       200.81058       0
       17168.401       113.30573       235.92790       0
       17191.409       143.40414       262.89367       0
       17214.416       173.63625       312.59143       0
       17237.423      -18.390213       345.25818       0
       17260.430       220.95838       404.89902       0
       17283.438       515.84525       446.62396       0
       17306.445       308.28259       448.43961       0
       17329.452      -482.17740       536.93983       0
