#WAVELENGTH FLUX ERROR MASK
       10262.861      -3870.7941       0.0000000       0
       10286.575      -3317.3249       0.0000000       0
       10310.290      -2903.6775       0.0000000       0
       10334.005      -2571.6427       0.0000000       0
       10357.720      -2319.7918       0.0000000       0
       10381.435      -2099.4286       0.0000000       0
       10405.150      -1878.5664       0.0000000       0
       10428.865      -1651.1316       0.0000000       0
       10452.579      -1392.5408       0.0000000       0
       10476.294      -1132.8817       0.0000000       0
       10500.009      -890.70266       0.0000000       0
       10523.724      -683.38297       0.0000000       0
       10547.439      -517.27237       0.0000000       0
       10571.154      -370.50429       0.0000000       0
       10594.869      -242.02175       0.0000000       0
       10618.583      -122.01811       0.0000000       0
       10642.298      -4.8562703       0.0000000       0
       10666.013       108.89455       0.0000000       0
       10689.728       211.05607       0.0000000       0
       10713.443       299.74121       0.0000000       0
       10737.158       364.66414       0.0000000       0
       10760.873       414.05547       0.0000000       0
       10784.587       452.22866       0.0000000       0
       10808.302       484.44838       0.0000000       0
       10832.017       516.98243       0.0000000       0
       10855.732       552.72477       0.0000000       0
       10879.447       593.85623       0.0000000       0
       10903.162       638.05100       0.0000000       0
       10926.877       685.26882       0.0000000       0
       10950.591       730.73289       0.0000000       0
       10974.306       771.07154       0.0000000       0
       10998.021       805.34126       0.0000000       0
       11021.736       833.53549       0.0000000       1
       11045.451       858.02151       0.0000000       1
       11069.166       881.44894       0.0000000       1
       11092.881       907.44227       0.0000000       1
       11116.595       937.43069       0.0000000       1
       11140.310       972.52010       0.0000000       1
       11164.025       1010.9215       0.0000000       1
       11187.740       1050.0708       0.0000000       1
       11211.455       1090.1409       0.0000000       1
       11235.170       1127.8037       0.0000000       1
       11258.885       1164.7431       0.0000000       1
       11282.599       1196.2896       0.0000000       1
       11306.314       1225.7346       0.0000000       1
       11330.029       1248.8303       0.0000000       1
       11353.744       1267.9970       0.0000000       1
       11377.459       1282.0823       0.0000000       1
       11401.174       1295.5088       0.0000000       1
       11424.889       1307.7755       0.0000000       1
       11448.603       1322.9597       0.0000000       1
       11472.318       1340.4827       0.0000000       1
       11496.033       1358.0881       0.0000000       1
       11519.748       1375.6300       0.0000000       1
       11543.463       1390.9012       0.0000000       1
       11567.178       1402.0123       0.0000000       1
       11590.893       1408.8140       0.0000000       1
       11614.607       1410.2421       0.0000000       1
       11638.322       1406.8088       0.0000000       1
       11662.037       1399.0474       0.0000000       1
       11685.752       1388.6128       0.0000000       1
       11709.467       1376.5283       0.0000000       1
       11733.182       1361.5389       0.0000000       1
       11756.897       1344.6028       0.0000000       1
       11780.611       1327.3454       0.0000000       1
       11804.326       1308.1267       0.0000000       1
       11828.041       1287.3814       0.0000000       1
       11851.756       1263.3227       0.0000000       1
       11875.471       1234.5751       0.0000000       1
       11899.186       1178.9668       0.0000000       1
       11922.901       1139.9909       0.0000000       1
       11946.615       1091.9088       0.0000000       1
       11970.330       1051.6449       0.0000000       1
       11994.045       1012.5058       0.0000000       1
       12017.760       998.02316       0.0000000       1
       12041.475       994.30434       0.0000000       1
       12065.190       1007.3314       0.0000000       1
       12088.905       1026.9360       0.0000000       1
       12112.619       1048.0519       0.0000000       1
       12136.334       1070.1030       0.0000000       1
       12160.049       1089.6634       0.0000000       1
       12183.764       1099.2206       0.0000000       1
       12207.479       1094.9596       0.0000000       1
       12231.194       1066.6516       0.0000000       1
       12254.909       1031.2908       0.0000000       1
       12278.623       968.70301       0.0000000       1
       12302.338       919.37664       0.0000000       1
       12326.053       851.48584       0.0000000       1
       12349.768       820.46483       0.0000000       1
       12373.483       788.15040       0.0000000       1
       12397.198       796.75865       0.0000000       1
       12420.913       823.53972       0.0000000       1
       12444.627       871.55043       0.0000000       1
       12468.342       956.14644       0.0000000       1
       12492.057       1057.6207       0.0000000       1
       12515.772       1188.6667       0.0000000       1
       12539.487       1295.7338       0.0000000       1
       12563.202       1402.2054       0.0000000       1
       12586.917       1452.0414       0.0000000       1
       12610.631       1477.9483       0.0000000       1
       12634.346       1467.1791       0.0000000       1
       12658.061       1432.3993       0.0000000       1
       12681.776       1371.1647       0.0000000       1
       12705.491       1291.6435       0.0000000       1
       12729.206       1224.0885       0.0000000       1
       12752.921       1168.6361       0.0000000       1
       12776.636       1134.0151       0.0000000       1
       12800.350       1112.9757       0.0000000       1
       12824.065       1110.6197       0.0000000       1
       12847.780       1117.8382       0.0000000       1
       12871.495       1122.2576       0.0000000       1
       12895.210       1120.1332       0.0000000       1
       12918.925       1109.7234       0.0000000       1
       12942.640       1088.4744       0.0000000       1
       12966.354       1055.9697       0.0000000       1
       12990.069       1019.0116       0.0000000       1
       13013.784       999.53239       0.0000000       1
       13037.499       990.05935       0.0000000       1
       13061.214       986.23655       0.0000000       1
       13084.929       981.63388       0.0000000       1
       13108.644       982.70537       0.0000000       1
       13132.358       980.82941       0.0000000       1
       13156.073       979.49731       0.0000000       1
       13179.788       969.11019       0.0000000       1
       13203.503       961.34448       0.0000000       1
       13227.218       951.47790       0.0000000       1
       13250.933       949.51328       0.0000000       1
       13274.648       954.89347       0.0000000       1
       13298.362       966.09881       0.0000000       1
       13322.077       985.04583       0.0000000       1
       13345.792       1006.4708       0.0000000       1
       13369.507       1025.2052       0.0000000       1
       13393.222       1029.9980       0.0000000       1
       13416.937       1024.6383       0.0000000       1
       13440.652       1026.7148       0.0000000       1
       13464.366       1034.7029       0.0000000       1
       13488.081       1050.7798       0.0000000       1
       13511.796       1076.4043       0.0000000       1
       13535.511       1105.4253       0.0000000       1
       13559.226       1144.0324       0.0000000       1
       13582.941       1179.0529       0.0000000       1
       13606.656       1215.4157       0.0000000       1
       13630.370       1237.5578       0.0000000       1
       13654.085       1264.6200       0.0000000       1
       13677.800       1287.5016       0.0000000       1
       13701.515       1315.6222       0.0000000       1
       13725.230       1317.0118       0.0000000       1
       13748.945       1302.2135       0.0000000       1
       13772.660       1267.6694       0.0000000       1
       13796.374       1229.2703       0.0000000       1
       13820.089       1214.3207       0.0000000       1
       13843.804       1223.6617       0.0000000       1
       13867.519       1254.4223       0.0000000       1
       13891.234       1300.3143       0.0000000       1
       13914.949       1343.1813       0.0000000       1
       13938.664       1389.4510       0.0000000       1
       13962.378       1386.6561       0.0000000       1
       13986.093       1439.4320       0.0000000       1
       14009.808       1495.8717       0.0000000       1
       14033.523       1558.5217       0.0000000       1
       14057.238       1590.7509       0.0000000       1
       14080.953       1614.7955       0.0000000       1
       14104.668       1618.2661       0.0000000       1
       14128.382       1621.8726       0.0000000       1
       14152.097       1615.8744       0.0000000       1
       14175.812       1606.5823       0.0000000       1
       14199.527       1565.0920       0.0000000       1
       14223.242       1495.5965       0.0000000       1
       14246.957       1407.7101       0.0000000       1
       14270.672       1307.1152       0.0000000       1
       14294.386       1216.8427       0.0000000       1
       14318.101       1126.2415       0.0000000       1
       14341.816       1072.4065       0.0000000       1
       14365.531       1048.9503       0.0000000       1
       14389.246       1062.8777       0.0000000       1
       14412.961       1106.9326       0.0000000       1
       14436.676       1142.9158       0.0000000       1
       14460.390       1167.9523       0.0000000       1
       14484.105       1156.7014       0.0000000       1
       14507.820       1121.7341       0.0000000       1
       14531.535       1045.9238       0.0000000       1
       14555.250       917.34008       0.0000000       1
       14578.965       745.80699       0.0000000       1
       14602.680       539.53996       0.0000000       1
       14626.394       355.39980       0.0000000       1
       14650.109       145.39121       0.0000000       1
       14673.824      -53.638085       0.0000000       1
       14697.539      -351.37279       0.0000000       1
       14721.254      -671.86444       0.0000000       1
       14744.969      -1246.4347       0.0000000       1
       14768.684      -1782.1613       0.0000000       1
       14792.398      -2488.9288       0.0000000       1
       14816.113      -2844.5390       0.0000000       1
       14839.828      -3131.2675       0.0000000       1
       14863.543      -2963.4787       0.0000000       1
       14887.258      -2620.8210       0.0000000       1
       14910.973      -2285.7055       0.0000000       1
       14934.688      -1829.7011       0.0000000       1
       14958.402      -1294.0316       0.0000000       1
       14982.117      -640.39150       0.0000000       1
       15005.832      -168.00677       0.0000000       1
       15029.547       247.77629       0.0000000       1
       15053.262       456.27989       0.0000000       1
       15076.977       609.71731       0.0000000       1
       15100.692       675.52937       0.0000000       1
       15124.406       715.69042       0.0000000       1
       15148.121       727.45621       0.0000000       1
       15171.836       729.62551       0.0000000       1
       15195.551       711.81157       0.0000000       1
       15219.266       677.71863       0.0000000       1
       15242.981       630.45262       0.0000000       1
       15266.696       580.34544       0.0000000       1
       15290.410       546.83739       0.0000000       1
       15314.125       508.68178       0.0000000       1
       15337.840       452.22788       0.0000000       1
       15361.555       383.51733       0.0000000       1
       15385.270       309.78541       0.0000000       1
       15408.985       237.32251       0.0000000       1
       15432.700       191.54367       0.0000000       1
       15456.414       172.25462       0.0000000       1
       15480.129       181.94839       0.0000000       1
       15503.844       214.10149       0.0000000       1
       15527.559       248.76293       0.0000000       1
       15551.274       292.78289       0.0000000       1
       15574.989       338.15206       0.0000000       1
       15598.704       387.93798       0.0000000       1
       15622.418       430.27905       0.0000000       1
       15646.133       463.55433       0.0000000       1
       15669.848       483.73620       0.0000000       1
       15693.563       503.55771       0.0000000       1
       15717.278       519.87446       0.0000000       1
       15740.993       545.88493       0.0000000       1
       15764.708       565.39098       0.0000000       1
       15788.422       585.38590       0.0000000       1
       15812.137       568.73160       0.0000000       1
       15835.852       525.32864       0.0000000       1
       15859.567       467.95043       0.0000000       1
       15883.282       397.96705       0.0000000       1
       15906.997       331.42033       0.0000000       1
       15930.712       249.30477       0.0000000       1
       15954.426       166.05070       0.0000000       1
       15978.141       68.466506       0.0000000       1
       16001.856      -16.370226       0.0000000       1
       16025.571      -120.21471       0.0000000       1
       16049.286      -212.75230       0.0000000       1
       16073.001      -336.05859       0.0000000       1
       16096.716      -493.92787       0.0000000       1
       16120.430      -719.51347       0.0000000       1
       16144.145      -971.19745       0.0000000       1
       16167.860      -1235.5081       0.0000000       1
       16191.575      -1419.8110       0.0000000       1
       16215.290      -1521.8031       0.0000000       1
       16239.005      -1477.1475       0.0000000       1
       16262.720      -1341.7774       0.0000000       1
       16286.434      -1185.1123       0.0000000       1
       16310.149      -991.18764       0.0000000       1
       16333.864      -750.83207       0.0000000       1
       16357.579      -491.15020       0.0000000       1
       16381.294      -280.26534       0.0000000       1
       16405.009      -126.70813       0.0000000       1
       16428.724      -37.929302       0.0000000       1
       16452.438       11.833292       0.0000000       1
       16476.153       37.593455       0.0000000       1
       16499.868       52.399751       0.0000000       1
       16523.583       62.159235       0.0000000       1
       16547.298       70.507302       0.0000000       1
       16571.013       73.067127       0.0000000       1
       16594.728       71.157170       0.0000000       1
       16618.442       64.173414       0.0000000       1
       16642.157       54.724243       0.0000000       1
       16665.872       45.174505       0.0000000       1
       16689.587       29.881773       0.0000000       1
       16713.302       6.3009328       0.0000000       1
       16737.017      -17.389208       0.0000000       1
       16760.732      -40.833494       0.0000000       0
       16784.446      -63.407162       0.0000000       0
       16808.161      -86.196533       0.0000000       0
       16831.876      -109.05170       0.0000000       0
       16855.591      -132.92968       0.0000000       0
       16879.306      -160.86862       0.0000000       0
       16903.021      -196.80125       0.0000000       0
       16926.736      -244.79922       0.0000000       0
       16950.450      -306.04407       0.0000000       0
       16974.165      -385.15961       0.0000000       0
       16997.880      -476.87458       0.0000000       0
       17021.595      -574.28687       0.0000000       0
       17045.310      -658.40123       0.0000000       0
       17069.025      -721.06362       0.0000000       0
       17092.740      -771.59350       0.0000000       0
       17116.455      -824.69975       0.0000000       0
       17140.169      -903.43807       0.0000000       0
       17163.884      -996.11977       0.0000000       0
       17187.599      -1101.2760       0.0000000       0
       17211.314      -1209.9364       0.0000000       0
       17235.029      -1322.9010       0.0000000       0
       17258.744      -1443.4655       0.0000000       0
       17282.459      -1561.8796       0.0000000       0
       17306.173      -1642.8655       0.0000000       0
       17329.888      -1674.7779       0.0000000       0
       17353.603      -1695.6356       0.0000000       0
       17377.318      -1753.6964       0.0000000       0
       17401.033      -1826.2295       0.0000000       0
       17424.748      -1923.2932       0.0000000       0
       17448.463      -2158.0134       0.0000000       0
       17472.177      -2659.4317       0.0000000       0
       17495.892      -3667.6655       0.0000000       0
       17519.607      -5447.8884       0.0000000       0
       17543.322      -8349.0797       0.0000000       0
       17567.037      -12881.375       0.0000000       0
       17590.752      -16021.353       0.0000000       0
       17614.467      -17471.187       0.0000000       0
       17638.181  -9.1226656e+27       0.0000000       0
