#WAVELENGTH FLUX ERROR MASK
       10174.198      -590.51723       0.0000000       0
       10197.205      -539.99493       0.0000000       0
       10220.212      -472.51798       0.0000000       0
       10243.220      -405.05249       0.0000000       0
       10266.227      -345.84616       0.0000000       0
       10289.234      -296.25504       0.0000000       0
       10312.241      -259.16761       0.0000000       0
       10335.249      -229.85534       0.0000000       0
       10358.256      -207.32986       0.0000000       0
       10381.263      -188.63498       0.0000000       0
       10404.270      -170.33270       0.0000000       0
       10427.278      -152.47364       0.0000000       0
       10450.285      -131.50848       0.0000000       0
       10473.292      -111.39396       0.0000000       0
       10496.299      -93.129103       0.0000000       0
       10519.307      -77.810667       0.0000000       0
       10542.314      -66.114431       0.0000000       0
       10565.321      -56.897725       0.0000000       0
       10588.328      -49.866597       0.0000000       0
       10611.336      -44.223096       0.0000000       0
       10634.343      -39.325289       0.0000000       0
       10657.350      -34.968122       0.0000000       0
       10680.357      -30.314625       0.0000000       0
       10703.365      -25.864827       0.0000000       0
       10726.372      -21.456455       0.0000000       0
       10749.379      -17.596824       0.0000000       0
       10772.386      -14.435001       0.0000000       0
       10795.394      -11.914999       0.0000000       0
       10818.401      -10.055704       0.0000000       0
       10841.408      -8.6343287       0.0000000       0
       10864.415      -7.5975908       0.0000000       0
       10887.423      -6.8088307       0.0000000       0
       10910.430      -6.1828948       0.0000000       0
       10933.437      -5.6713696       0.0000000       0
       10956.444      -5.2041886       0.0000000       0
       10979.452      -4.7754759       0.0000000       0
       11002.459      -4.3735668       0.0000000       1
       11025.466      -3.9990873       0.0000000       1
       11048.473      -3.6694727       0.0000000       1
       11071.481      -3.3764747       0.0000000       1
       11094.488      -3.1299132       0.0000000       1
       11117.495      -2.9189192       0.0000000       1
       11140.502      -2.7355665       0.0000000       1
       11163.510      -2.5727767       0.0000000       1
       11186.517      -2.4197156       0.0000000       1
       11209.524      -2.2738097       0.0000000       1
       11232.531      -2.1291685       0.0000000       1
       11255.539      -1.9847394       0.0000000       1
       11278.546      -1.8414371       0.0000000       1
       11301.553      -1.7006179       0.0000000       1
       11324.560      -1.5651387       0.0000000       1
       11347.568      -1.7514000       0.0000000       1
       11370.575       28.585356       19.266746       1
       11393.582       38.519838       19.065503       1
       11416.589       13.980017       18.854037       1
       11439.597       28.048105       18.660780       1
       11462.604       14.364935       18.451945       1
       11485.611       36.006094       18.621732       1
       11508.618       40.930573       19.268430       1
       11531.626       31.700839       18.374639       1
       11554.633       31.989855       19.069429       1
       11577.640       42.388604       18.450429       1
       11600.647       13.519176       18.135067       1
       11623.655       41.667660       18.203950       1
       11646.662       27.902492       17.986525       1
       11669.669       37.794993       17.707028       1
       11692.676       51.799734       21.922954       1
       11715.684       41.020303       17.380208       1
       11738.691       82.388758       23.789328       1
       11761.698       55.984096       17.247237       1
       11784.705       57.913800       21.107628       1
       11807.713       56.672060       16.954441       1
       11830.720       82.022306       22.512966       1
       11853.727       78.003846       22.005683       1
       11876.734       55.879175       21.970061       1
       11899.742       79.241005       21.758545       1
       11922.749       81.818616       22.005319       1
       11945.756       64.301102       19.335462       1
       11968.763       108.14896       22.264578       1
       11991.771       105.17814       21.475418       1
       12014.778       86.672958       21.470103       1
       12037.785       103.05158       21.180079       1
       12060.792       106.69252       21.667859       1
       12083.800       117.05713       21.087822       1
       12106.807       94.704357       20.980788       1
       12129.814       91.826249       20.558402       1
       12152.821       100.53927       20.676026       1
       12175.829       73.134015       20.174113       1
       12198.836       62.362304       18.287381       1
       12221.843       68.773889       19.866570       1
       12244.850       61.641271       19.924475       1
       12267.858       50.784061       19.429648       1
       12290.865       70.684944       19.779806       1
       12313.872       59.760389       17.813930       1
       12336.879       64.669733       19.738519       1
       12359.887       67.334723       19.225499       1
       12382.894       70.198691       19.401633       1
       12405.901       59.529611       18.949128       1
       12428.908       55.854243       19.046294       1
       12451.916       59.303689       18.717312       1
       12474.923       72.568179       19.159655       1
       12497.930       54.904383       18.487689       1
       12520.937       49.297127       19.007615       1
       12543.945       59.477902       18.469870       1
       12566.952       53.687048       18.657127       1
       12589.959       61.228222       18.386596       1
       12612.966       57.185372       18.459097       1
       12635.974       51.534232       18.262816       1
       12658.981       47.739790       17.069576       1
       12681.988       58.358330       18.395608       1
       12704.995       54.843926       18.337087       1
       12728.002       64.437967       18.030704       1
       12751.010       63.118992       18.099991       1
       12774.017       68.536092       17.800603       1
       12797.024       60.458030       17.848810       1
       12820.031       57.834786       17.546448       1
       12843.039       53.746323       17.636583       1
       12866.046       48.139465       17.266686       1
       12889.053       69.533657       17.746469       1
       12912.060       46.894093       17.192287       1
       12935.068       43.286388       17.329915       1
       12958.075       62.456749       17.109496       1
       12981.082       55.166985       17.258923       1
       13004.089       59.569099       16.832285       1
       13027.097       50.007052       17.008400       1
       13050.104       65.156391       16.721749       1
       13073.111       60.960865       16.858107       1
       13096.118       59.518597       16.608271       1
       13119.126       55.273702       16.740393       1
       13142.133       62.439973       16.495501       1
       13165.140       44.002996       16.575492       1
       13188.147       52.817911       16.233061       1
       13211.155       54.888348       16.376475       1
       13234.162       57.690954       16.081711       1
       13257.169       58.638570       16.232730       1
       13280.176       53.634200       16.130043       1
       13303.184       50.512410       16.109510       1
       13326.191       56.506654       15.881684       1
       13349.198       46.595264       16.191795       1
       13372.205       65.253172       15.922149       1
       13395.213       49.697013       15.902174       1
       13418.220       60.838506       15.704418       1
       13441.227       61.539927       16.143609       1
       13464.234       61.209218       15.570392       1
       13487.242       52.951759       15.648144       1
       13510.249       54.106845       15.445049       1
       13533.256       62.669233       15.575305       1
       13556.263       63.203519       15.417463       1
       13579.271       48.123638       15.462375       1
       13602.278       55.240122       15.359395       1
       13625.285       46.975082       15.397239       1
       13648.292       62.521186       15.359029       1
       13671.300       55.855564       15.700751       1
       13694.307       70.197632       15.449824       1
       13717.314       46.207701       15.428876       1
       13740.321       56.814268       15.338677       1
       13763.329       54.080916       15.514227       1
       13786.336       51.245851       15.274500       1
       13809.343       55.760466       15.552225       1
       13832.350       56.199201       15.262541       1
       13855.358       53.974825       15.524790       1
       13878.365       47.030262       15.110131       1
       13901.372       57.245479       15.455349       1
       13924.379       42.515785       15.079179       1
       13947.387       65.142397       15.496571       1
       13970.394       57.121210       15.094347       1
       13993.401       63.452553       15.518391       1
       14016.408       57.109300       14.997917       1
       14039.416       49.637956       15.088959       1
       14062.423       52.331096       14.781386       1
       14085.430       43.397807       14.803131       1
       14108.437       64.479381       14.820312       1
       14131.445       54.435260       14.847277       1
       14154.452       43.589292       14.467246       1
       14177.459       55.643380       14.838733       1
       14200.466       51.535116       14.500036       1
       14223.474       49.482919       14.726860       1
       14246.481       51.308528       14.359638       1
       14269.488       51.692907       14.566594       1
       14292.495       50.380356       14.336580       1
       14315.503       44.716225       14.404151       1
       14338.510       52.577326       14.231170       1
       14361.517       52.325766       14.532935       1
       14384.524       46.396956       14.079724       1
       14407.532       38.202800       13.109802       1
       14430.539       49.348904       14.088472       1
       14453.546       56.738297       14.466868       1
       14476.553       54.429021       14.209090       1
       14499.561       46.431597       14.243838       1
       14522.568       45.461518       14.023320       1
       14545.575       41.732343       4255898.6       1
       14568.582       44.306741       12.810065       1
       14591.590       52.216224       14.336215       1
       14614.597       47.779158       14.017509       1
       14637.604       41.058807       14.188568       1
       14660.611       52.711754       14.693517       1
       14683.619       47.408911       14.267530       1
       14706.626       42.824501       13.012977       1
       14729.633       54.081800       14.371055       1
       14752.640       51.147488       14.140254       1
       14775.648       48.036240       14.325453       1
       14798.655       55.890711       14.261571       1
       14821.662       43.770524       13.237224       1
       14844.669       42.397180       13.951412       1
       14867.677       49.963399       14.224475       1
       14890.684       47.154961       13.936811       1
       14913.691       37.059080       13.039193       1
       14936.698       50.087055       13.830902       1
       14959.706       38.300587       12.897548       1
       14982.713       43.502838       4154655.6       1
       15005.720       42.219694       13.813278       1
       15028.727       51.151568       13.752647       1
       15051.735       53.728596       4138455.3       1
       15074.742       46.088379       14.154575       1
       15097.749       47.613653       14.067211       1
       15120.756       37.648047       14.025556       1
       15143.764       52.031117       14.002663       1
       15166.771       54.859651       13.684339       1
       15189.778       50.029834       13.930921       1
       15212.785       47.797045       12.660129       1
       15235.793       49.079229       13.775533       1
       15258.800       51.589590       13.639753       1
       15281.807       46.888026       13.861635       1
       15304.814       46.828005       13.499891       1
       15327.822       60.287922       14.007201       1
       15350.829       47.310256       13.612632       1
       15373.836       41.368063       13.993492       1
       15396.843       47.389618       13.611594       1
       15419.851       42.457750       14.081839       1
       15442.858       49.496592       13.694878       1
       15465.865       46.489442       14.120448       1
       15488.872       49.024596       13.686721       1
       15511.880       50.594029       14.074717       1
       15534.887       54.186154       13.787002       1
       15557.894       63.156162       14.555093       1
       15580.901       60.004041       13.753706       1
       15603.909       78.897565       14.748769       1
       15626.916       75.109866       13.943919       1
       15649.923       77.446311       14.358335       1
       15672.930       84.682470       4113073.0       1
       15695.938       117.35867       14.862869       1
       15718.945       114.80371       14.360393       1
       15741.952       123.47391       14.715075       1
       15764.959       129.01360       14.408445       1
       15787.967       160.60903       16.085373       1
       15810.974       150.98148       14.680971       1
       15833.981       141.81516       4063569.5       1
       15856.988       126.64128       14.373417       1
       15879.996       115.16667       14.616653       1
       15903.003       108.03810       14.242347       1
       15926.010       83.977007       14.466100       1
       15949.017       69.885387       13.855929       1
       15972.025       59.439263       14.092952       1
       15995.032       61.715064       13.874818       1
       16018.039       67.577583       14.361280       1
       16041.046       70.923392       13.907127       1
       16064.054       67.981622       14.250225       1
       16087.061       55.913795       13.819069       1
       16110.068       66.974162       14.491067       1
       16133.075       65.675874       13.823328       1
       16156.083       43.951179       14.220040       1
       16179.090       75.798363       14.109210       1
       16202.097       49.864849       14.384447       1
       16225.104       53.384685       14.049918       1
       16248.112       54.139393       14.890914       1
       16271.119       54.599783       14.181048       1
       16294.126       59.651873       14.724975       1
       16317.133       34.480438       14.018664       1
       16340.141       47.621368       14.480475       1
       16363.148       52.248000       14.278426       1
       16386.155       42.760420       14.833490       1
       16409.162       41.814091       14.197743       1
       16432.170       31.828825       14.826364       1
       16455.177       39.301145       14.237834       1
       16478.184       40.350931       15.302150       1
       16501.191       42.256781       14.521550       1
       16524.199       51.984710       15.095009       1
       16547.206       39.847413       15.014671       1
       16570.213       45.549083       15.622234       1
       16593.220       52.687472       16.273057       1
       16616.228       37.614921       17.279976       1
       16639.235       52.870024       18.043011       1
       16662.242       33.512408       19.677019       1
       16685.249       36.756734       20.917073       1
       16708.256       49.801731       24.239681       1
       16731.264       22.784129       25.067351       1
       16754.271       30.362485       27.830585       0
       16777.278       52.428007       32.514635       0
       16800.285      -20.924059       34.385071       0
       16823.293       55.401965       42.484840       0
       16846.300       36.494744       44.199491       0
       16869.307       32.525248       53.845649       0
       16892.314       41.291662       61.877907       0
       16915.322       93.468470       63.073763       0
       16938.329       69.177693       79.567387       0
       16961.336       66.705697       84.502183       0
       16984.343       90.271808       88.741697       0
       17007.351       29.907727       104.64579       0
       17030.358      -46.925242       118.76476       0
       17053.365      -60.028202       117.51272       0
       17076.372      -53.072256       131.67081       0
       17099.380       25.342993       144.64969       0
       17122.387      -14.080461       181.90324       0
       17145.394      -49.408305       181.21925       0
       17168.401       220.57222       237.09775       0
       17191.409      -35.849704       260.19292       0
       17214.416       161.16034       260.73187       0
       17237.423       8.1444774   1.0765572e+08       0
       17260.430      -51.425414       361.42849       0
       17283.438       110.03195       444.20696       0
       17306.445      -81.131202       497.52702       0
       17329.452      -59.446057       543.34601       0
