#WAVELENGTH FLUX ERROR MASK
       7484.7113      -843.62566       0.0000000       0
       7496.9823      -712.43580       0.0000000       0
       7509.2532      -579.19518       0.0000000       0
       7521.5241      -482.08825       0.0000000       0
       7533.7950      -408.63930       0.0000000       0
       7546.0660      -328.96569       0.0000000       0
       7558.3369      -259.17951       0.0000000       0
       7570.6078      -203.52112       0.0000000       0
       7582.8787       925.28592       5622.0892       0
       7595.1496       3818.0689       5866.1560       0
       7607.4206      -1415.9344       3776.7661       0
       7619.6915       6577.2626       4202.9085       0
       7631.9624      -756.83049       2279.4748       0
       7644.2333       1747.0493       2558.2195       0
       7656.5042      -554.91247       2813.9554       0
       7668.7752       172.19572       1781.9290       0
       7681.0461       40.804470       1995.5903       0
       7693.3170      -1383.0480       1276.8723       0
       7705.5879       1089.9780       1542.1413       0
       7717.8589      -279.37289       735.38630       0
       7730.1298       129.20269   4.8836014e+08       0
       7742.4007      -101.08812       592.88222       0
       7754.6716      -171.14897       960.65790       0
       7766.9425       244.14157       868.29067       0
       7779.2135      -64.583054       820.65007       0
       7791.4844      -92.666761       734.16240       0
       7803.7553       111.14851       687.72555       0
       7816.0262      -31.981523       478.85195       0
       7828.2971      -206.28551       469.85385       0
       7840.5681       62.915864       383.53840       0
       7852.8390       10.781588       386.86824       0
       7865.1099       40.127905       291.69797       0
       7877.3808       10.769429       318.67761       0
       7889.6517      -23.682224       240.06955       0
       7901.9227       84.268949       254.41748       0
       7914.1936       122.83734       219.85232       0
       7926.4645       140.20926       210.47549       0
       7938.7354       11.349885       188.06813       0
       7951.0064       69.724661       202.10139       0
       7963.2773       312.79636       166.97937       0
       7975.5482       182.95616       177.63037       0
       7987.8191       147.46509       184.51339       0
       8000.0900       131.71222       164.75315       0
       8012.3610       198.50167       143.99065       0
       8024.6319       158.58797       156.49990       0
       8036.9028       83.127048       135.25003       0
       8049.1737       115.93420       149.63268       0
       8061.4446       75.527320       132.26507       0
       8073.7156       84.397086       155.29285       0
       8085.9865       177.26831       126.44015       0
       8098.2574       37.934526       139.99392       0
       8110.5283       85.426878       117.93834       0
       8122.7993       102.66642       135.39704       0
       8135.0702       186.30569       114.91088       0
       8147.3411      -7.1646894       130.46880       0
       8159.6120       158.22191       111.26248       1
       8171.8829       73.197555       125.45684       1
       8184.1539       91.940750       107.27607       1
       8196.4248       35.895399       121.44739       1
       8208.6957       86.796918       106.41279       1
       8220.9666       219.67558       118.51170       1
       8233.2375       113.96349       99.527023       1
       8245.5085       49.588679       112.51076       1
       8257.7794       43.594847       94.472117       1
       8270.0503       63.030701       106.68695       1
       8282.3212       80.971981       94.676315       1
       8294.5922       114.36203       102.89241       1
       8306.8631       55.697894       85.953361       1
       8319.1340       72.478849       98.548442       1
       8331.4049       97.274469       90.904434       1
       8343.6758       88.292172       108.74237       1
       8355.9468       46.000695       81.077097       1
       8368.2177       58.432120       106.07857       1
       8380.4886       86.632865       80.156269       1
       8392.7595       117.48688       97.988532       1
       8405.0304       57.481498       77.908664       1
       8417.3014       41.012182       89.371377       1
       8429.5723       66.275352       77.889498       1
       8441.8432       76.576582       85.355130       1
       8454.1141      0.42133956       72.717812       1
       8466.3851       71.295920       83.575113       1
       8478.6560       69.135675       73.451400       1
       8490.9269       85.849064       80.435071       1
       8503.1978       51.041473       70.072687       1
       8515.4687       77.696698       79.784618       1
       8527.7397       77.645803       67.602176       1
       8540.0106       59.181518       76.879231       1
       8552.2815       72.600865       66.586548       1
       8564.5524       24.449583       81.170842       1
       8576.8233       72.943455       70.282881       1
       8589.0943      -17.677380       76.645598       1
       8601.3652       71.550328       66.195561       1
       8613.6361       56.041298       81.228357       1
       8625.9070       37.777747       68.927317       1
       8638.1779       66.687209       75.862815       1
       8650.4489       87.708258       65.324079       1
       8662.7198       66.987395       75.001913       1
       8674.9907       46.554394       63.599913       1
       8687.2616       68.497100       73.373777       1
       8699.5326       73.905996       65.062779       1
       8711.8035       33.299760       70.366046       1
       8724.0744       75.974988       59.546134       1
       8736.3453       50.977432       73.903738       1
       8748.6162       40.132709       59.659789       1
       8760.8872       41.482174       66.100333       1
       8773.1581       52.189430       56.387500       1
       8785.4290       101.74428       65.158244       1
       8797.6999       69.792233       55.148824       1
       8809.9708       82.622632       64.117770       1
       8822.2418       8.5107375       55.817114       1
       8834.5127       80.915451       62.210370       1
       8846.7836       100.54023       53.255293       1
       8859.0545       38.504944       60.975076       1
       8871.3255       13.893235       51.650682       1
       8883.5964       51.513429       59.400261       1
       8895.8673       78.781757       51.801731       1
       8908.1382       103.87233       60.087363       1
       8920.4091       92.925102       50.692172       1
       8932.6801       103.29864       58.054968       1
       8944.9510       102.77547       50.565260       1
       8957.2219       75.669942       57.237566       1
       8969.4928       95.735726       51.298387       1
       8981.7637       160.42581       56.345454       1
       8994.0347       124.64537       50.440214       1
       9006.3056       108.34038       55.754015       1
       9018.5765       126.71695       47.926968       1
       9030.8474       114.30994       55.289426       1
       9043.1184       95.296079       47.165274       1
       9055.3893       102.93114       54.740740       1
       9067.6602       87.456470       46.869474       1
       9079.9311       103.22510       54.061590       1
       9092.2020       33.906500       47.039934       1
       9104.4730       119.91965       52.628711       1
       9116.7439       99.404439       45.352119       1
       9129.0148       99.218202       51.390795       1
       9141.2857       114.65733       44.708190       1
       9153.5566       82.988704       50.813087       1
       9165.8276       59.329320       45.306679       1
       9178.0985       26.118753       54.149389       1
       9190.3694       68.926616       42.817022       1
       9202.6403       71.844733       53.066115       1
       9214.9113       105.32016       42.217697       1
       9227.1822       57.578096       48.109622       1
       9239.4531       54.412709       48.968026       1
       9251.7240       55.082975       47.536874       1
       9263.9949       59.488376       42.184925       1
       9276.2659       93.131369       51.156309       1
       9288.5368       81.634291       40.581657       1
       9300.8077       87.168546       46.676070       1
       9313.0786       100.12052       45.851901       1
       9325.3495       105.60096       46.488694       1
       9337.6205       87.658203       39.872906       1
       9349.8914       122.67814       45.664280       1
       9362.1623       110.43976       46.786661       1
       9374.4332       80.929354       49.069918       1
       9386.7042       95.100052       43.510123       1
       9398.9751       117.47941       47.673327       1
       9411.2460       99.175347       41.921066       1
       9423.5169       58.325796       47.693513       1
       9435.7878       69.936514       39.504160       1
       9448.0588       68.727812       43.331536       1
       9460.3297       80.897463       37.546892       1
       9472.6006       55.082215       43.385293       1
       9484.8715       94.295167       38.415120       1
       9497.1424       94.468241       42.598652       1
       9509.4134       92.036890       36.797358       1
       9521.6843       92.254716       41.901968       1
       9533.9552       86.963231       38.219545       1
       9546.2261       100.00368       41.989382       1
       9558.4970       79.486643       37.972923       1
       9570.7680       102.12501       41.703075       1
       9583.0389       79.300128       36.044145       1
       9595.3098       59.981130       43.691675       1
       9607.5807       80.169253       35.518319       1
       9619.8517       101.63084       43.239588       1
       9632.1226       83.402181       36.217677       1
       9644.3935       110.87209       40.238967       1
       9656.6644       91.427594       35.179192       1
       9668.9353       97.706555       39.884584       1
       9681.2063       75.310643       34.365199       1
       9693.4772       64.231642       42.233253       1
       9705.7481       70.855046       35.909873       1
       9718.0190       91.755463       39.109066       1
       9730.2899       101.23501       33.891983       1
       9742.5609       67.779902       38.552455       1
       9754.8318       91.438763       33.685061       1
       9767.1027       101.82576       38.497513       1
       9779.3736       98.318825       32.848690       1
       9791.6446       118.47363       38.304878       1
       9803.9155       65.174846       32.922329       1
       9816.1864       85.818618       37.611500       1
       9828.4573       76.483586       32.619809       1
       9840.7282       95.785398       37.683698       1
       9852.9992       90.302372       37.160361       1
       9865.2701       71.937132       40.764707       1
       9877.5410       67.401849       32.327269       1
       9889.8119       107.01702       37.495498       1
       9902.0828       99.646655       32.403779       1
       9914.3538       117.43083       37.117691       1
       9926.6247       95.519623       32.158767       1
       9938.8956       70.136016       40.514389       1
       9951.1665       105.25519       31.752354       1
       9963.4375       104.99149       37.001062       1
       9975.7084       87.614568       33.243433       1
       9987.9793       66.401859       36.288246       1
       10000.250       44.865737       31.184123       1
       10012.521       74.373368       35.841642       1
       10024.792       70.399823       32.131024       1
       10037.063       98.260510       38.396651       1
       10049.334       84.619927       32.070307       1
       10061.605       104.25131       35.564888       1
       10073.876       85.325231       31.372086       1
       10086.147       99.464682       34.962082       1
       10098.418       89.503912       30.877235       1
       10110.689       95.740852       35.097047       1
       10122.959       100.49096       30.771199       1
       10135.230       88.480401       34.965849       1
       10147.501       74.243100       30.652283       1
       10159.772       83.311630       37.670430       1
       10172.043       74.949859       30.196499       1
       10184.314       91.982914       36.693995       1
       10196.585       100.74931       31.092888       1
       10208.856       61.512200       34.252338       1
       10221.127       94.324247       30.843357       1
       10233.398       110.50770       34.220515       1
       10245.669       61.423778       29.521940       1
       10257.940       65.866543       36.380173       1
       10270.210       68.403680       30.177589       1
       10282.481       106.91901       36.668814       1
       10294.752       93.097661       30.061715       1
       10307.023       75.116243       33.149857       1
       10319.294       55.369148       28.530866       1
       10331.565       86.869820       32.777444       1
       10343.836       78.526789       28.058932       1
       10356.107       71.895160       32.812575       1
       10368.378       80.905288       28.167940       1
       10380.649       90.996779       32.310000       1
       10392.920       82.506493       28.015904       1
       10405.191       98.493746       32.534086       1
       10417.462       60.183792       28.168117       1
       10429.732       95.319447       32.265557       1
       10442.003       100.02253       28.055964       1
       10454.274       71.238752       32.492580       1
       10466.545       71.266017       28.158373       1
       10478.816       90.190109       32.189794       1
       10491.087       93.079588       27.879910       1
       10503.358       116.37764       31.848064       1
       10515.629       83.287990       27.880514       1
       10527.900       80.598704       31.905713       1
       10540.171       66.831209       28.968497       1
       10552.442       106.68590       34.794084       1
       10564.713       44.334304       30.133635       1
       10576.984       72.906268       32.202165       1
       10589.254       92.833069       27.726546       1
       10601.525       79.527500       34.185781       1
       10613.796       71.070103       27.379816       1
       10626.067       65.463081       35.031682       1
       10638.338       94.112549       28.954275       1
       10650.609       56.621783       31.918495       1
       10662.880       64.802789       28.736837       1
       10675.151       57.533915       30.895382       1
       10687.422       55.063758       27.925366       1
       10699.693       66.322431       31.420122       1
       10711.964       76.815143       27.113934       1
       10724.235       65.789240       31.013910       1
       10736.505       50.708318       28.151676       1
       10748.776       84.176308       30.506471       1
       10761.047       84.897394       28.839819       1
       10773.318       63.887788       30.427245       1
       10785.589       94.873247       26.541319       1
       10797.860       76.141226       30.693544       1
       10810.131       92.255324       29.541829       1
       10822.402       99.646623       33.212122       1
       10834.673       53.528260       27.111885       1
       10846.944       83.855166       33.115704       1
       10859.215       80.246496       26.234211       1
       10871.486       94.903591       30.467175       1
       10883.757       82.203085       26.675043       1
       10896.027       86.123230       30.266731       1
       10908.298       81.511571       26.412586       1
       10920.569       59.825354       30.042107       1
       10932.840       69.968506       27.430973       1
       10945.111       67.221319       32.258351       1
       10957.382       95.978676       26.896014       1
       10969.653       50.858601       27.668043       1
       10981.924       67.295236       28.068201       1
       10994.195       60.034668       30.062480       1
       11006.466       55.066797       26.839300       1
       11018.737       88.852910       33.036172       1
       11031.008       76.886146       26.829428       1
       11043.279       93.608152       30.316749       1
       11055.549       69.558481       26.671168       1
       11067.820       70.607818       32.134809       1
       11080.091       93.023462       27.280588       1
       11092.362       70.694424       32.265809       1
       11104.633       75.882248       26.561433       1
       11116.904       61.108860       30.056195       1
       11129.175       80.831405       25.848652       1
       11141.446       77.912377       30.461341       1
       11153.717       69.222952       26.543422       1
       11165.988       92.135620       30.441478       1
       11178.259       71.585223       25.762650       1
       11190.530       42.869137       29.663005       1
       11202.801       87.902662       27.046774       0
       11215.071       79.760186       34.115289       0
       11227.342       49.329782       25.763712       0
       11239.613       49.571491       29.456945       0
       11251.884       85.646081       26.901037       0
       11264.155       94.923382       32.241314       0
       11276.426       56.342991       26.013316       0
       11288.697       57.177709       29.690395       0
       11300.968       56.310262       26.705413       0
       11313.239       66.612394       29.820994       0
       11325.510       61.597751       26.765947       0
       11337.781       87.766622       29.546927       0
       11350.052       58.179744       25.887639       0
       11362.322       66.742396       29.730917       0
       11374.593       55.626876       25.572515       0
       11386.864       35.027945       29.890241       0
       11399.135       60.779190       26.305109       0
       11411.406       24.412536       30.941178       0
       11423.677       65.933911       27.768828       0
       11435.948       41.775528       33.606926       0
       11448.219       73.245881       31.956352       0
       11460.490       58.693397       38.334035       0
       11472.761       28.908864       36.013481       0
       11485.032       50.023508       46.047739       0
       11497.303       68.977539       45.430918       0
       11509.574       42.695501       58.746134       0
       11521.844       90.292279       58.456005       0
       11534.115       52.747644       74.765537       0
       11546.386       69.767428       79.796592       0
       11558.657       39.322400       93.530834       0
       11570.928       60.193814       97.722968       0
       11583.199       30.402784       122.14220       0
       11595.470      -30.045825       109.51717       0
       11607.741      -6.2512173       151.63835       0
       11620.012      -83.383506       150.11010       0
       11632.283      -15.362571       193.39477       0
       11644.554      -7.2083796       206.52713       0
       11656.825       133.02282       278.75620       0
       11669.096       193.50576       313.12516       0
       11681.366      -172.20151       487.36504       0
       11693.637       218.68879       446.61755       0
       11705.908       169.38319       633.16967       0
       11718.179      -117.55125       685.90180       0
       11730.450      -186.39312       896.68980       0
       11742.721       13.843291       944.31466       0
       11754.992      -367.72248       1488.6599       0
       11767.263      -230.55643       1622.7343       0
       11779.534      -76.713503       2378.1746       0
       11791.805       567.50715       2596.4862       0
       11804.076       495.49148       3925.9124       0
       11816.347      -977.69428       4405.6566       0
       11828.617      -744.41536       5532.2993       0
       11840.888      -387.46878       5245.1337       0
       11853.159      -1635.0720       6236.3459       0
       11865.430       2954.9861       5394.0518       0
       11877.701       2122.0374       5513.3050       0
       11889.972      -1481.7582       4928.6484       0
