#WAVELENGTH FLUX ERROR MASK
       7516.6004       8075.6841       18935.930       0
       7529.0594       11386.178       18675.852       0
       7541.5183       5707.2207       13229.907       0
       7553.9773       11242.130       12447.369       0
       7566.4362       6499.4505       8138.6805       0
       7578.8952       1917.4871       7368.1465       0
       7591.3541       3863.7211       5350.1923       0
       7603.8131       1541.2747       5130.4673       0
       7616.2720      -1061.7816       3718.4020       0
       7628.7310       2619.8248       3575.2488       0
       7641.1900       1476.7546       2691.6836       0
       7653.6489       2380.1857       2653.0966       0
       7666.1079       1344.0251       1937.9610       0
       7678.5668       1140.4017       1847.3980       0
       7691.0258       575.59858       1396.7935       0
       7703.4847       714.04045       1293.4911       0
       7715.9437       855.53537       1051.0208       0
       7728.4026       695.09649       970.01105       0
       7740.8616       374.94001       773.02354       0
       7753.3205       558.26451       791.91314       0
       7765.7795       196.21509       660.24576       0
       7778.2384       519.98589       709.21875       0
       7790.6974       266.47728       561.12125       0
       7803.1563       694.53504       579.35241       0
       7815.6153       673.81412       462.12012       0
       7828.0742       394.99641       466.41221       0
       7840.5332       295.69565       385.19918       0
       7852.9921       252.41850       377.03157       0
       7865.4511       157.33126       287.03343       0
       7877.9100       163.33113       312.20151       0
       7890.3690       128.14989       254.06718       0
       7902.8279       55.900524       271.74965       0
       7915.2869       46.045808       228.27282       0
       7927.7458       305.66282       232.55077       0
       7940.2048       128.33689       199.11451       0
       7952.6637       224.78339       209.58871       0
       7965.1227       225.10295       176.76660       0
       7977.5816       172.15559       199.56578       0
       7990.0406       89.022748       173.67928       0
       8002.4995       190.73538       186.68033       0
       8014.9585       179.00913       158.85922       0
       8027.4174       110.30790       169.79090       0
       8039.8764       141.08848       148.00472       0
       8052.3353       207.44783       161.17126       0
       8064.7943       108.77012       146.16999       0
       8077.2532       210.60505       163.89729       0
       8089.7122       61.933171       137.73510       0
       8102.1711       87.396300       159.54866       0
       8114.6301       138.35769       129.30424       0
       8127.0890       175.63791       146.68967       0
       8139.5480       153.97092       127.88727       0
       8152.0069       195.88129       132.63347       1
       8164.4659       104.77843       123.73446       1
       8176.9248       112.86086       140.04036       1
       8189.3838       80.639422       118.21189       1
       8201.8427       119.14612       129.89377       1
       8214.3017       92.428830       114.81900       1
       8226.7606       131.21488       123.81895       1
       8239.2196       119.20204       106.14684       1
       8251.6785       81.622972       118.08198       1
       8264.1375       78.001208       101.80746       1
       8276.5964       89.542427       111.88589       1
       8289.0554       163.11672       99.434378       1
       8301.5144       56.893903       106.55874       1
       8313.9733       74.982842       93.393528       1
       8326.4323       74.453883       106.44436       1
       8338.8912       113.71719       90.161261       1
       8351.3502       91.653088       103.91415       1
       8363.8091       151.28348       85.901554       1
       8376.2681       100.89773       97.033551       1
       8388.7270       45.428852       83.423693       1
       8401.1860       139.57337       94.650107       1
       8413.6449       85.363513       83.003889       1
       8426.1039       68.217675       91.528389       1
       8438.5628       52.909799       83.336696       1
       8451.0218       120.36489       93.126154       1
       8463.4807       100.37941       77.541338       1
       8475.9397       61.429538       90.675140       1
       8488.3986       84.717949       73.661447       1
       8500.8576       123.23911       87.889828       1
       8513.3165       94.558259       74.830592       1
       8525.7755       96.083529       85.702574       1
       8538.2344       49.505070       73.204678       1
       8550.6934       107.61101       88.357968       1
       8563.1523       24.995670       69.954532       1
       8575.6113       102.52020       80.191538       1
       8588.0702       117.40316       71.356679       1
       8600.5292       84.116889       79.698787       1
       8612.9881       96.997778       68.622605       1
       8625.4471       145.94191       78.818745       1
       8637.9060       80.796812       68.372388       1
       8650.3650       55.465938       80.468073       1
       8662.8239       126.39451       69.447154       1
       8675.2829       97.513911       76.895457       1
       8687.7418       84.346743       65.370434       1
       8700.2008       70.509259       74.513853       1
       8712.6597       101.31065       63.357492       1
       8725.1187       131.68964       71.682324       1
       8737.5776       70.345281       61.627821       1
       8750.0366       78.730787       69.697318       1
       8762.4955       71.732466       60.722734       1
       8774.9545       71.198827       67.368166       1
       8787.4134       61.719607       57.976893       1
       8799.8724       117.15594       66.702779       1
       8812.3313       62.514550       57.580820       1
       8824.7903       56.985422       72.164437       1
       8837.2492       92.870230       55.839062       1
       8849.7082       20.134557       66.985715       1
       8862.1671       112.30762       55.628274       1
       8874.6261       64.092428       62.092073       1
       8887.0850       59.462382       53.290777       1
       8899.5440       89.146437       61.365944       1
       8912.0029       57.872718       52.591549       1
       8924.4619       51.826413       62.385049       1
       8936.9208       74.157593       52.692368       1
       8949.3798       56.203970       59.319961       1
       8961.8388       81.757781       50.504355       1
       8974.2977       95.705313       60.485751       1
       8986.7567       106.01507       51.208813       1
       8999.2156       75.910869       60.097350       1
       9011.6746       60.513499       50.151066       1
       9024.1335       61.725543       60.027132       1
       9036.5925       102.99508       49.892300       1
       9049.0514       89.697125       56.202535       1
       9061.5104       62.858826       48.658131       1
       9073.9693       79.712009       57.937913       1
       9086.4283       72.143385       48.630122       1
       9098.8872       70.302762       54.710795       1
       9111.3462       58.235873       47.712555       1
       9123.8051       69.270794       53.407741       1
       9136.2641       66.337530       47.263565       1
       9148.7230       95.339200       52.233110       1
       9161.1820       71.243000       45.537616       1
       9173.6409       65.393471       50.919798       1
       9186.0999       83.904525       43.692394       1
       9198.5588       72.905929       49.976184       1
       9211.0178       84.481711       44.181532       1
       9223.4767       82.060496       51.316966       1
       9235.9357       68.791509       44.460080       1
       9248.3946       69.096904       48.532567       1
       9260.8536       75.785370       43.670135       1
       9273.3125       88.401553       48.251723       1
       9285.7715       91.553374       43.134418       1
       9298.2304       99.367878       47.528528       1
       9310.6894       65.233259       41.280014       1
       9323.1483       74.048036       46.720397       1
       9335.6073       86.463587       40.786898       1
       9348.0662       85.328968       48.094086       1
       9360.5252       83.119240       41.018197       1
       9372.9841       95.237045       45.845355       1
       9385.4431       71.638056       41.155116       1
       9397.9020       80.236432       45.396504       1
       9410.3610       61.780905       39.971423       1
       9422.8199       73.844642       44.254742       1
       9435.2789       65.656372       40.141731       1
       9447.7378       74.415951       43.708714       1
       9460.1968       54.592435       38.121115       1
       9472.6557       59.189505       43.302957       1
       9485.1147       62.864888       37.589592       1
       9497.5736       62.475952       42.744530       1
       9510.0326       67.647355       37.296898       1
       9522.4915       64.125630       42.445381       1
       9534.9505       62.494456       37.237951       1
       9547.4094       63.538203       41.540064       1
       9559.8684       61.198439       37.792889       1
       9572.3273       51.389145       44.877880       1
       9584.7863       45.963514       36.077355       1
       9597.2453       57.575419       40.648986       1
       9609.7042       77.388786       36.659164       1
       9622.1632       77.950724       40.283371       1
       9634.6221       63.743050       36.936761       1
       9647.0811       46.953178       39.939923       1
       9659.5400       39.523630       35.486195       1
       9671.9990       51.745869       39.497628       1
       9684.4579       73.478264       36.195502       1
       9696.9169       86.288963       39.191598       1
       9709.3758       54.423425       34.466120       1
       9721.8348       76.381077       38.853716       1
       9734.2937       71.362109       34.024335       1
       9746.7527       55.208044       38.532055       1
       9759.2116       45.846889       34.172418       1
       9771.6706       47.744267       41.577294       1
       9784.1295       55.716351       34.738854       1
       9796.5885       66.617197       41.549307       1
       9809.0474       50.824682       33.352844       1
       9821.5064       72.985193       37.738622       1
       9833.9653       64.287052       34.773018       1
       9846.4243       53.456656       39.765089       1
       9858.8832       49.546435       33.647346       1
       9871.3422       52.989671       39.199569       1
       9883.8011       54.661623       32.815046       1
       9896.2601       67.479974       37.213754       1
       9908.7190       43.110855       32.514291       1
       9921.1780       69.524502       37.016769       1
       9933.6369       55.372211       32.257596       1
       9946.0959       54.691468       36.588280       1
       9958.5548       64.492881       32.223826       1
       9971.0138       63.825443       36.831964       1
       9983.4727       66.401325       31.639385       1
       9995.9317       87.933185       36.175724       1
       10008.391       50.802097       31.950538       1
       10020.850       61.516521       38.507394       1
       10033.309       46.370622       30.966257       1
       10045.767       52.597581       36.660775       1
       10058.226       54.054875       31.365221       1
       10070.685       61.478300       35.017568       1
       10083.144       70.484653       30.736617       1
       10095.603       60.225777       34.969170       1
       10108.062       60.741001       30.422678       1
       10120.521       64.881808       35.048287       1
       10132.980       40.463938       31.604939       1
       10145.439       66.799067       36.525981       1
       10157.898       71.874145       30.414884       1
       10170.357       64.919263       36.054690       1
       10182.816       81.342608       31.576367       1
       10195.275       68.726189       34.429156       1
       10207.734       54.358506       30.521872       1
       10220.193       63.562938       34.519292       1
       10232.652       52.466645       29.697584       1
       10245.111       77.876554       33.929004       1
       10257.570       63.993063       29.300953       1
       10270.029       64.580146       33.665424       1
       10282.488       69.778252       29.939039       1
       10294.947       71.223066       33.782927       1
       10307.405       47.761709       28.713954       1
       10319.864       63.031219       32.982931       1
       10332.323       71.559245       29.387078       1
       10344.782       72.710191       33.078010       1
       10357.241       55.859874       28.936882       1
       10369.700       74.552732       32.663571       1
       10382.159       55.466617       28.907211       1
       10394.618       69.362415       32.416299       1
       10407.077       58.601986       28.820731       1
       10419.536       64.209942       32.361372       1
       10431.995       55.721474       28.917695       1
       10444.454       58.317704       32.349543       1
       10456.913       62.534551       28.366512       1
       10469.372       39.829161       33.628115       1
       10481.831       45.466302       27.723784       1
       10494.290       54.934649       32.239100       1
       10506.749       59.589042       27.909464       1
       10519.208       54.037573       32.072941       1
       10531.667       62.026682       27.840342       1
       10544.126       56.661237       32.460623       1
       10556.584       50.590157       28.328949       1
       10569.043       35.607721       34.628464       1
       10581.502       44.058447       27.773518       1
       10593.961       47.494038       32.629330       1
       10606.420       59.512502       27.772226       1
       10618.879       51.785240       32.514088       1
       10631.338       55.069201       27.500552       1
       10643.797       66.654917       31.772875       1
       10656.256       46.237113       27.423928       1
       10668.715       68.099199       31.381907       1
       10681.174       56.074472       27.014986       1
       10693.633       46.357723       32.447545       1
       10706.092       52.740651       27.563300       1
       10718.551       45.884587       32.188478       1
       10731.010       64.614168       27.955109       1
       10743.469       55.812029       31.033893       1
       10755.928       53.468153       27.788609       1
       10768.387       56.497524       30.718188       1
       10780.846       32.874073       28.555480       1
       10793.305       48.689039       33.602089       1
       10805.763       56.873309       26.864166       1
       10818.222       64.626428       30.614272       1
       10830.681       49.501877       28.963782       1
       10843.140       64.297669       31.913924       1
       10855.599       49.241159       26.470448       1
       10868.058       39.465247       31.465220       1
       10880.517       44.309060       26.348856       1
       10892.976       62.293056       30.189085       1
       10905.435       49.958443       26.767669       1
       10917.894       58.813910       31.521327       1
       10930.353       50.162648       26.579895       1
       10942.812       51.505245       32.275651       1
       10955.271       40.336141       26.452997       1
       10967.730       43.632024       31.119944       1
       10980.189       34.340261       26.476580       1
       10992.648       58.245517       30.915405       1
       11005.107       50.496039       25.813545       1
       11017.566       39.939663       31.037949       1
       11030.025       40.574134       26.600362       1
       11042.484       52.947676       30.908467       1
       11054.943       52.590235       26.469313       1
       11067.401       63.147059       29.695775       1
       11079.860       51.247444       27.070527       1
       11092.319       56.891981       29.987176       1
       11104.778       59.855640       26.849248       1
       11117.237       37.099891       31.355627       1
       11129.696       56.367967       25.964599       1
       11142.155       42.336396       29.511602       1
       11154.614       61.476242       25.760233       1
       11167.073       43.880672       29.572375       1
       11179.532       46.199156       25.936318       1
       11191.991       65.114337       29.564770       1
       11204.450       47.229399       25.664923       0
       11216.909       44.519361       29.544276       0
       11229.368       28.686918       27.216229       0
       11241.827       42.248484       32.302323       0
       11254.286       47.105840       25.786213       0
       11266.745       45.761797       30.662620       0
       11279.204       39.191058       26.715142       0
       11291.663       32.956055       29.259838       0
       11304.122       43.605186       26.863106       0
       11316.580       28.785374       29.177703       0
       11329.039       55.097909       27.469965       0
       11341.498       39.745601       29.312482       0
       11353.957       37.853785       26.673572       0
       11366.416       41.418603       29.367173       0
       11378.875       49.006381       26.271507       0
       11391.334       29.770493       30.511299       0
       11403.793       38.776344       28.591771       0
       11416.252       23.754394       33.401564       0
       11428.711       55.026301       32.587040       0
       11441.170       24.391499       38.669525       0
       11453.629       16.321328       37.334562       0
       11466.088       12.104340       49.391943       0
       11478.547       32.216213       47.887951       0
       11491.006       16.557742       60.687946       0
       11503.465       18.943012       61.208502       0
       11515.924       41.882659       77.729361       0
       11528.383       43.385145       81.224579       0
       11540.842       37.052464       98.029419       0
       11553.301       10.450668       97.645485       0
       11565.760       20.695635       119.02612       0
       11578.218       16.964714       116.31156       0
       11590.677       12.506825       151.80586       0
       11603.136       29.252507       155.93987       0
       11615.595       7.8953911       211.50991       0
       11628.054       4.8480655       230.85872       0
       11640.513       15.636101       315.92161       0
       11652.972      -14.486482       344.85934       0
       11665.431       123.08473       484.33777       0
       11677.890      -10.219505       531.26390       0
       11690.349       149.32662       760.99649       0
       11702.808       175.76780       788.93146       0
       11715.267       127.78874       1108.2624       0
       11727.726      -240.87657       1265.7692       0
       11740.185      -123.34030       1906.8289       0
       11752.644      -480.35892       1987.2785       0
       11765.103       121.26107       3076.4272       0
       11777.562       1789.3385       3555.4363       0
       11790.021      -1759.3559       4879.0952       0
       11802.480      -549.21408       5056.0409       0
       11814.939      -645.87475       5763.3906       0
       11827.397       1365.1629       5036.6621       0
       11839.856       1326.6142       5898.9549       0
       11852.315       2295.3383       4937.6014       0
       11864.774      -2074.4040       5929.8395       0
       11877.233      -124.47834       5466.6430       0
       11889.692      -149.03056       7011.4877       0
       11902.151       827.08602       6452.5559       0
       11914.610      -469.30546       8608.3095       0
       11927.069      -1849.1277       9623.1045       0
       11939.528      -3319.9771       12730.406       0
       11951.987      -4704.3593       12289.754       0
       11964.446       1175.3759       15776.395       0
       11976.905       230.02123       16486.421       0
       11989.364       4777.5934       22139.486       0
