#WAVELENGTH FLUX ERROR MASK
       10198.743      -389.35756       4364.5834       0
       10221.406      -518.01847       3937.8613       0
       10244.069       1495.5878       3326.5495       0
       10266.732       404.62217       2920.6633       0
       10289.396       1904.4564       2476.3706       0
       10312.059       1625.4737       2245.3597       0
       10334.722       355.63199       1942.0274       0
       10357.385       1127.5996       1823.5244       0
       10380.048       344.05574       1618.9273       0
       10402.712       556.80839       1519.1974       0
       10425.375       250.34240       1331.9779       0
       10448.038      -309.09093       1189.8871       0
       10470.701       75.840479       996.05702       0
       10493.365       29.869195       856.89900       0
       10516.028       123.21357       711.97378       0
       10538.691       263.68514       628.59540       0
       10561.354       161.27811       530.27212       0
       10584.017       62.066284       480.42895       0
       10606.681      -61.768010       418.53015       0
       10629.344       298.62417       397.79272       0
       10652.007       115.75673       341.68090       0
       10674.670       189.61565       311.16192       0
       10697.334       269.58222       264.30275       0
       10719.997       113.07963       228.62017       0
       10742.660       166.42558       186.95128       0
       10765.323       48.582535       155.36289       0
       10787.986       51.854616       128.56872       0
       10810.650       53.715252       114.03646       0
       10833.313       84.442172       96.712098       0
       10855.976       59.248585       88.000819       0
       10878.639       86.615561       77.969243       0
       10901.303       38.101243       73.679545       0
       10923.966       54.114420       66.834995       0
       10946.629       48.960768       62.037879       0
       10969.292       46.221955       58.372923       0
       10991.956       34.016243       55.766413       0
       11014.619       50.397623       50.950048       1
       11037.282       44.100627       48.828305       1
       11059.945       54.278963       44.943751       1
       11082.608       50.002604       43.553557       1
       11105.272       49.812627       40.461573       1
       11127.935       42.904451       40.188265       1
       11150.598       49.884446       37.987902       1
       11173.261       54.505408       38.442944       1
       11195.925       39.073743       36.501693       1
       11218.588       55.791017       37.184442       1
       11241.251       29.193419       35.498032       1
       11263.914       52.966113       35.117228       1
       11286.577       47.577468       36.010882       1
       11309.241       43.021348       35.556730       1
       11331.904       48.491285       35.209598       1
       11354.567       62.020234       35.139697       1
       11377.230       25.336724       33.527568       1
       11399.894       54.799068       33.020783       1
       11422.557       43.128475       33.126014       1
       11445.220       61.066435       33.874884       1
       11467.883       64.402947       32.893166       1
       11490.546       45.765318       33.508088       1
       11513.210       44.736605       32.445162       1
       11535.873       48.882616       33.162707       1
       11558.536       48.362123       32.189015       1
       11581.199       44.770184       32.735596       1
       11603.863       30.335086       31.569688       1
       11626.526       52.045015       32.646948       1
       11649.189       60.730445       31.404185       1
       11671.852       45.943434       31.696298       1
       11694.515       31.961673       29.213558       1
       11717.179       36.663955       30.900172       1
       11739.842       49.385365       29.876908       1
       11762.505       31.967003       28.872392       1
       11785.168       50.271779       29.258931       1
       11807.832       54.547343       29.634819       1
       11830.495       46.732900       28.595696       1
       11853.158       33.373189       27.789458       1
       11875.821       51.947058       27.846499       1
       11898.484       35.926618       27.442813       1
       11921.148       53.333141       27.905145       1
       11943.811       20.515982       24.540448       1
       11966.474       44.350540       27.353249       1
       11989.137       33.613740       25.356235       1
       12011.801       34.167155       26.774230       1
       12034.464       48.906391       28.084637       1
       12057.127       34.552571       24.461554       1
       12079.790       42.822466       26.521295       1
       12102.453       26.162985       24.114582       1
       12125.117       38.296103       26.637548       1
       12147.780       30.605996       22.950635       1
       12170.443       24.191129       26.342766       1
       12193.106       44.331300       25.672054       1
       12215.770       52.548641       25.993750       1
       12238.433       44.090181       24.290572       1
       12261.096       49.010919       25.645522       1
       12283.759       41.977463       25.022506       1
       12306.422       45.780514       24.564932       1
       12329.086       40.719382       24.710366       1
       12351.749       34.900848       25.076953       1
       12374.412       50.139265       24.567068       1
       12397.075       40.030973       24.866593       1
       12419.739       34.114450       24.230694       1
       12442.402       43.986102       24.503883       1
       12465.065       42.498226       24.212999       1
       12487.728       31.799746       24.358567       1
       12510.391       40.306735       23.787275       1
       12533.055       35.255802       23.232368       1
       12555.718       33.600913       23.631277       1
       12578.381       42.714240       24.074388       1
       12601.044       28.755590       23.520862       1
       12623.708       57.363349       24.352229       1
       12646.371       41.702152       23.557655       1
       12669.034       50.175036       3628023.5       1
       12691.697       48.184023       23.128654       1
       12714.360       40.207080       23.701582       1
       12737.024       37.926984       22.922110       1
       12759.687       23.467551       22.345150       1
       12782.350       40.776738       22.718155       1
       12805.013       32.371953       22.021279       1
       12827.677       26.906486       20.436034       1
       12850.340       41.017997       22.802201       1
       12873.003       39.571968       22.253850       1
       12895.666       44.128280       22.663738       1
       12918.329       40.142607       22.212406       1
       12940.993       42.642294       3411294.8       1
       12963.656       43.089225       3264416.7       1
       12986.319       45.476502       21.948502       1
       13008.982       41.446129       21.597162       1
       13031.646       44.844215       21.776682       1
       13054.309       39.060010       21.324023       1
       13076.972       50.762717       21.844506       1
       13099.635       42.488010       20.486864       1
       13122.298       37.366925       21.493828       1
       13144.962       47.380896       21.054163       1
       13167.625       48.726425       21.370565       1
       13190.288       54.325546       20.904931       1
       13212.951       63.724154       21.408114       1
       13235.615       65.918031       20.972045       1
       13258.278       64.089964       21.038784       1
       13280.941       48.283010       20.478971       1
       13303.604       50.311979       20.761257       1
       13326.267       60.048713       20.434450       1
       13348.931       57.814568       20.736505       1
       13371.594       42.597673       18.844052       1
       13394.257       44.838315       19.775136       1
       13416.920       48.111531       20.066855       1
       13439.584       45.994240       20.284095       1
       13462.247       48.335205       19.932580       1
       13484.910       48.265280       20.159007       1
       13507.573       39.966046       19.637960       1
       13530.236       45.672443       19.886421       1
       13552.900       54.368313       19.770755       1
       13575.563       53.847834       20.012042       1
       13598.226       56.975477       19.674475       1
       13620.889       56.838271       19.942324       1
       13643.553       49.691580       18.929405       1
       13666.216       59.349730       19.925058       1
       13688.879       60.445594       2915000.2       1
       13711.542       53.309146       19.916586       1
       13734.205       58.801850       19.656279       1
       13756.869       53.270336       19.945881       1
       13779.532       54.745224       19.781078       1
       13802.195       53.905360       19.882547       1
       13824.858       55.060591       18.944980       1
       13847.522       47.983634       19.839465       1
       13870.185       46.512074       19.061793       1
       13892.848       43.003764       19.786466       1
       13915.511       51.967297       19.497338       1
       13938.174       54.021712       19.711106       1
       13960.838       43.408005       19.293844       1
       13983.501       43.908618       19.549882       1
       14006.164       50.863694       19.170742       1
       14028.827       41.641815       19.242886       1
       14051.491       44.698665       18.282891       1
       14074.154       42.689842       19.126637       1
       14096.817       45.036126       18.680550       1
       14119.480       41.994687       18.945424       1
       14142.143       34.893669       18.525011       1
       14164.807       40.947557       19.024520       1
       14187.470       46.921930       18.630958       1
       14210.133       49.375266       18.831611       1
       14232.796       34.583094       18.390946       1
       14255.460       33.722135       17.798414       1
       14278.123       41.094646       18.261456       1
       14300.786       37.007380       18.481964       1
       14323.449       41.680315       2715837.1       1
       14346.112       39.927050       18.351625       1
       14368.776       38.573778       17.955744       1
       14391.439       44.029157       18.321544       1
       14414.102       46.611327       18.051413       1
       14436.765       39.966591       18.733261       1
       14459.429       49.596291       18.074091       1
       14482.092       42.246511       18.147402       1
       14504.755       30.256494       17.923149       1
       14527.418       28.057562       18.000140       1
       14550.081       35.405215       17.182826       1
       14572.745       38.176136       18.249717       1
       14595.408       37.014148       18.000606       1
       14618.071       42.634340       18.265864       1
       14640.734       40.342223       17.974335       1
       14663.398       30.021465       18.047125       1
       14686.061       40.010037       17.943208       1
       14708.724       38.607797       18.241484       1
       14731.387       34.696945       17.964934       1
       14754.050       34.151927       18.379588       1
       14776.714       39.517607       17.934280       1
       14799.377       37.577622       18.425967       1
       14822.040       40.190125       18.033952       1
       14844.703       47.304970       18.291608       1
       14867.367       35.655135       17.073382       1
       14890.030       37.807899       18.041000       1
       14912.693       40.077007       17.705771       1
       14935.356       33.410392       17.879894       1
       14958.019       33.851402       17.457588       1
       14980.683       29.251360       17.750254       1
       15003.346       31.114643       2721479.7       1
       15026.009       33.840467       17.736103       1
       15048.672       24.752007       17.234708       1
       15071.336       34.200517       17.803622       1
       15093.999       41.303520       16.877358       1
       15116.662       25.555523       17.648438       1
       15139.325       31.691587       17.345041       1
       15161.989       32.478353       17.597202       1
       15184.652       34.155352       17.338919       1
       15207.315       26.890950       17.606809       1
       15229.978       33.445381       17.231912       1
       15252.641       39.227367       17.099512       1
       15275.305       38.916849       17.337349       1
       15297.968       30.726380       17.595240       1
       15320.631       31.269457       17.223442       1
       15343.294       39.367257       17.760467       1
       15365.958       24.263420       16.545734       1
       15388.621       32.270988       17.724341       1
       15411.284       37.461902       17.351565       1
       15433.947       34.294212       17.744797       1
       15456.610       39.049646       17.445976       1
       15479.274       41.465077       17.863152       1
       15501.937       34.439622       17.356598       1
       15524.600       33.279561       17.811744       1
       15547.263       27.630564       17.228588       1
       15569.927       24.672244       17.689592       1
       15592.590       35.158827       17.391722       1
       15615.253       35.197215       17.762189       1
       15637.916       31.638662       17.364379       1
       15660.579       44.309424       17.807477       1
       15683.243       34.313906       17.296134       1
       15705.906       32.164947       17.589581       1
       15728.569       33.108848       17.191981       1
       15751.232       36.135084       17.552738       1
       15773.896       35.892329       17.136487       1
       15796.559       29.779264       17.521304       1
       15819.222       38.360125       17.159587       1
       15841.885       28.798796       17.414420       1
       15864.548       45.482298       17.252703       1
       15887.212       35.789086       17.539699       1
       15909.875       32.514432       17.202039       1
       15932.538       30.459451       17.544854       1
       15955.201       27.272991       17.169042       1
       15977.865       21.445807       17.553994       1
       16000.528       30.767815       17.211440       1
       16023.191       26.762936       2595184.6       1
       16045.854       33.411249       17.277902       1
       16068.517       34.182512       17.757184       1
       16091.181       31.523383       17.342119       1
       16113.844       23.199372       17.614443       1
       16136.507       40.477778       17.629934       1
       16159.170       24.365113       17.796103       1
       16181.834       32.382999       17.498075       1
       16204.497       35.268903       18.087602       1
       16227.160       34.172582       17.604794       1
       16249.823       32.154203       18.198548       1
       16272.486       30.399123       17.682854       1
       16295.150       28.936464       18.161538       1
       16317.813       39.980551       17.862143       1
       16340.476       33.139625       18.405966       1
       16363.139       24.582719       17.797483       1
       16385.803       29.033949       18.285583       1
       16408.466       30.717584       17.908773       1
       16431.129       25.434467       18.404432       1
       16453.792       28.213596       18.030623       1
       16476.455       33.524969       18.708717       1
       16499.119       29.752204       17.818179       1
       16521.782       37.037750       19.340353       1
       16544.445       35.852206       19.547475       1
       16567.108       29.106124       20.438944       1
       16589.772       23.957874       20.871659       1
       16612.435       27.630339       22.721737       1
       16635.098       25.859949       23.663155       1
       16657.761       19.614014       26.200255       1
       16680.424       35.520980       28.074892       1
       16703.088       33.778951       31.964097       1
       16725.751       34.892463       34.829013       1
       16748.414       38.840065       40.083531       1
       16771.077       25.791698       44.469262       0
       16793.741       18.120954       51.390038       0
       16816.404       23.562853       57.441973       0
       16839.067       35.553283       64.682482       0
       16861.730       26.458290       73.054022       0
       16884.393       20.129009       83.459372       0
       16907.057       6.5470451       88.200432       0
       16929.720       102.84570       104.62227       0
       16952.383       50.185809       113.41304       0
       16975.046       37.104232       129.36807       0
       16997.710       9.3077992       140.93483       0
       17020.373       36.066854       159.44871       0
       17043.036       48.509863       173.91354       0
       17065.699      -99.662328       195.25396       0
       17088.362      -95.306848       204.83827       0
       17111.026       59.283666       244.47746       0
       17133.689      -48.554408       270.96011       0
       17156.352       57.837628       318.86575       0
       17179.015       19.105160       357.96213       0
       17201.679      -43.798797       418.23601       0
       17224.342      -50.276991       466.38845       0
       17247.005      -287.96427       531.38248       0
