#WAVELENGTH FLUX ERROR MASK
       7516.6004      -5475.9339       19318.739       0
       7529.0594      -6609.0608       18122.563       0
       7541.5183      -2250.1090       12949.463       0
       7553.9773       2681.8133       11773.070       0
       7566.4362      -1390.9720       8029.7094       0
       7578.8952      -1539.6609       7332.1418       0
       7591.3541      -5433.2934       5111.5720       0
       7603.8131       5307.1616       5354.2878       0
       7616.2720      -21.487652       3574.5212       0
       7628.7310      -749.43240       3545.8155       0
       7641.1900      -306.82327       2783.9405       0
       7653.6489       55.271167       2632.7506       0
       7666.1079      -688.81759       2076.8699       0
       7678.5668      -696.10078       1825.5468       0
       7691.0258       397.21276       1328.3542       0
       7703.4847       209.12238       1297.3253       0
       7715.9437       704.38023       990.62960       0
       7728.4026       350.60359       1052.0142       0
       7740.8616      -150.37892       750.16654       0
       7753.3205      -190.98779       787.12649       0
       7765.7795       469.21930       630.55949       0
       7778.2384      -252.28246       696.53678       0
       7790.6974       291.68753       569.83126       0
       7803.1563       74.297239       635.20485       0
       7815.6153       46.527338       434.58207       0
       7828.0742      -5.6984033       448.07676       0
       7840.5332       169.69054       363.26079       0
       7852.9921       88.428531       360.51843       0
       7865.4511       141.85418       296.42652       0
       7877.9100       103.05289       317.58932       0
       7890.3690       101.38787       250.46392       0
       7902.8279       251.78883       275.05327       0
       7915.2869       31.830451       211.35769       0
       7927.7458       191.36795       234.23168       0
       7940.2048       84.366956       198.20642       0
       7952.6637       222.15494       211.61949       0
       7965.1227       100.26806       179.05608       0
       7977.5816       84.568029       193.17155       0
       7990.0406       110.91136       165.18232       0
       8002.4995       46.108095       197.87249       0
       8014.9585       29.901109       154.05587       0
       8027.4174       158.74949       179.15972       0
       8039.8764       80.547995       142.47836       0
       8052.3353       175.89490       161.24936       0
       8064.7943      -5.0422844       136.68915       0
       8077.2532       138.19321       155.93172       0
       8089.7122       78.942117       132.89733       0
       8102.1711       82.200171       149.51475       0
       8114.6301      -4.3262454       128.26390       0
       8127.0890       91.241231       143.94635       0
       8139.5480       206.23856       128.19369       0
       8152.0069       75.799515       138.97916       1
       8164.4659       134.07679       117.33726       1
       8176.9248       183.74661       134.48863       1
       8189.3838       100.49216       114.96475       1
       8201.8427       162.37348       129.13662       1
       8214.3017       69.944005       110.50241       1
       8226.7606       57.672127       122.97327       1
       8239.2196       99.860940       105.38948       1
       8251.6785       126.65076       117.82249       1
       8264.1375       16.955125       99.703008       1
       8276.5964       118.92517       111.15745       1
       8289.0554       124.12301       94.351140       1
       8301.5144       141.94305       106.61723       1
       8313.9733       77.785280       91.304051       1
       8326.4323       63.254390       103.37831       1
       8338.8912       61.264895       90.140886       1
       8351.3502       145.00988       107.75308       1
       8363.8091       11.321640       85.230164       1
       8376.2681       115.74551       96.879866       1
       8388.7270       26.658790       86.040513       1
       8401.1860       95.342137       94.262800       1
       8413.6449       50.247822       80.694504       1
       8426.1039       131.40189       90.716874       1
       8438.5628       98.630192       81.642126       1
       8451.0218       96.432443       89.200978       1
       8463.4807       126.42540       75.885513       1
       8475.9397       199.34872       85.702103       1
       8488.3986       97.207116       74.250086       1
       8500.8576       78.708278       83.290125       1
       8513.3165       157.15912       72.328983       1
       8525.7755       131.43113       81.582398       1
       8538.2344       67.574217       70.907293       1
       8550.6934       89.695540       79.917823       1
       8563.1523       107.25383       69.724592       1
       8575.6113       51.692696       79.417319       1
       8588.0702       82.134192       68.602909       1
       8600.5292       78.229600       77.484515       1
       8612.9881       66.979311       69.135746       1
       8625.4471       105.00321       77.828288       1
       8637.9060       72.766312       71.389762       1
       8650.3650       134.18770       77.579117       1
       8662.8239       48.994031       69.300188       1
       8675.2829       66.228742       76.087120       1
       8687.7418       113.46104       64.990337       1
       8700.2008       125.18427       78.629467       1
       8712.6597       54.038271       62.968788       1
       8725.1187       140.20992       75.123827       1
       8737.5776       121.75084       70.125578       1
       8750.0366       76.103838       77.003709       1
       8762.4955       88.003044       58.992722       1
       8774.9545       86.262300       66.629559       1
       8787.4134       99.316056       61.151424       1
       8799.8724       94.506205       65.534631       1
       8812.3313       90.285306       59.662592       1
       8824.7903       99.175193       68.462608       1
       8837.2492       95.044676       57.503207       1
       8849.7082       85.179025       63.291207       1
       8862.1671       98.550498       56.463463       1
       8874.6261       87.435341       61.729982       1
       8887.0850       65.929513       54.348633       1
       8899.5440       103.29390       60.732381       1
       8912.0029       76.205190       52.481840       1
       8924.4619       76.589737       59.810112       1
       8936.9208       94.156342       54.127630       1
       8949.3798       87.933694       61.973066       1
       8961.8388       80.065648       54.246435       1
       8974.2977       99.029038       57.129672       1
       8986.7567       69.761175       50.831877       1
       8999.2156       88.465011       55.994576       1
       9011.6746       92.356191       48.480222       1
       9024.1335       77.435110       56.250224       1
       9036.5925       114.68747       51.241520       1
       9049.0514       74.682737       58.341336       1
       9061.5104       83.319374       51.014531       1
       9073.9693       86.176615       60.563601       1
       9086.4283       81.452814       48.004057       1
       9098.8872       109.41576       56.730395       1
       9111.3462       97.742700       52.647390       1
       9123.8051       91.860295       57.537702       1
       9136.2641       22.655943       46.563109       1
       9148.7230       86.018138       56.225597       1
       9161.1820       115.81703       47.170198       1
       9173.6409       88.940946       50.871526       1
       9186.0999       88.077930       44.071675       1
       9198.5588       94.912282       50.087824       1
       9211.0178       100.35184       43.291785       1
       9223.4767       97.035320       48.908962       1
       9235.9357       58.416605       42.332250       1
       9248.3946       104.59167       48.304228       1
       9260.8536       75.584852       43.025663       1
       9273.3125       126.30832       47.597239       1
       9285.7715       56.078775       41.518619       1
       9298.2304       95.984397       47.431615       1
       9310.6894       70.818769       41.165409       1
       9323.1483       106.75161       46.993794       1
       9335.6073       83.450695       41.628109       1
       9348.0662       96.820773       45.890224       1
       9360.5252       72.409949       39.982812       1
       9372.9841       82.978926       48.752501       1
       9385.4431       104.88954       39.670528       1
       9397.9020       76.922832       45.168586       1
       9410.3610       66.653810       40.868306       1
       9422.8199       71.264435       44.562980       1
       9435.2789       108.29727       40.054764       1
       9447.7378       59.794300       48.588662       1
       9460.1968       95.804177       37.933422       1
       9472.6557       83.284087       45.589550       1
       9485.1147       65.787903       37.880687       1
       9497.5736       75.631082       43.538234       1
       9510.0326       92.974076       39.903129       1
       9522.4915       104.37112       42.977613       1
       9534.9505       78.119385       38.082861       1
       9547.4094       74.924459       45.050226       1
       9559.8684       61.790940       36.747060       1
       9572.3273       73.989780       41.735811       1
       9584.7863       90.462556       37.515101       1
       9597.2453       101.78260       41.421825       1
       9609.7042       59.915115       35.928962       1
       9622.1632       78.320943       41.109439       1
       9634.6221       104.96183       36.265000       1
       9647.0811       76.588355       40.523127       1
       9659.5400       104.05494       35.124342       1
       9671.9990       113.08179       40.002575       1
       9684.4579       108.65939       35.848956       1
       9696.9169       91.605357       42.091282       1
       9709.3758       76.356946       36.297294       1
       9721.8348       71.492597       39.719646       1
       9734.2937       96.053788       36.401750       1
       9746.7527       100.65059       39.120172       1
       9759.2116       65.094859       33.813822       1
       9771.6706       105.36464       38.846814       1
       9784.1295       77.748323       33.332768       1
       9796.5885       85.086436       38.437003       1
       9809.0474       94.326415       33.405827       1
       9821.5064       90.524560       38.342057       1
       9833.9653       105.80768       33.265853       1
       9846.4243       86.384893       38.225840       1
       9858.8832       72.077495       33.301365       1
       9871.3422       84.717811       37.699970       1
       9883.8011       97.156922       32.567147       1
       9896.2601       80.778235       37.752776       1
       9908.7190       75.914395       33.040721       1
       9921.1780       100.55948       37.487783       1
       9933.6369       72.153355       33.651845       1
       9946.0959       83.536120       36.978637       1
       9958.5548       108.88285       32.425112       1
       9971.0138       77.998510       37.295462       1
       9983.4727       87.402290       32.013589       1
       9995.9317       101.51212       36.465896       1
       10008.391       80.905218       31.658151       1
       10020.850       52.126653       36.128059       1
       10033.309       102.42684       32.261291       1
       10045.767       105.54405       35.493856       1
       10058.226       83.644352       31.158791       1
       10070.685       78.362180       35.744670       1
       10083.144       70.867296       30.991097       1
       10095.603       98.058764       39.299698       1
       10108.062       92.773578       30.994652       1
       10120.521       119.56898       35.355775       1
       10132.980       84.072617       32.731966       1
       10145.439       90.906159       35.299732       1
       10157.898       81.907111       30.831414       1
       10170.357       107.23247       35.128101       1
       10182.816       79.998671       30.377638       1
       10195.275       83.991185       35.005289       1
       10207.734       82.706587       30.286882       1
       10220.193       98.070015       34.829731       1
       10232.652       90.447170       30.034676       1
       10245.111       119.30770       34.186230       1
       10257.570       94.843525       31.142984       1
       10270.029       89.668493       33.777411       1
       10282.488       96.092616       29.311223       1
       10294.947       86.898084       33.227287       1
       10307.405       44.724455       28.954354       1
       10319.864       84.745660       33.128594       1
       10332.323       74.746779       28.792391       1
       10344.782       103.90486       35.309251       1
       10357.241       105.90192       28.795354       1
       10369.700       77.997820       32.714322       1
       10382.159       65.415944       30.653836       1
       10394.618       78.218015       35.235864       1
       10407.077       77.156736       28.548877       1
       10419.536       99.559857       32.505509       1
       10431.995       73.467996       28.553096       1
       10444.454       73.152604       32.639022       1
       10456.913       82.150690       28.260101       1
       10469.372       78.612365       32.287991       1
       10481.831       76.584758       28.174436       1
       10494.290       110.44084       32.366267       1
       10506.749       91.368935       28.229822       1
       10519.208       91.468989       32.076012       1
       10531.667       88.901316       29.061360       1
       10544.126       94.777992       32.229863       1
       10556.584       81.639560       28.933532       1
       10569.043       88.749913       32.398847       1
       10581.502       83.809434       28.966204       1
       10593.961       98.169208       32.212197       1
       10606.420       77.808571       28.061953       1
       10618.879       81.979934       32.146000       1
       10631.338       77.362653       28.922557       1
       10643.797       83.090108       35.709133       1
       10656.256       67.684722       28.618429       1
       10668.715       68.103661       33.362680       1
       10681.174       80.050943       28.337059       1
       10693.633       94.103080       31.326934       1
       10706.092       93.356185       28.111790       1
       10718.551       95.965075       31.039638       1
       10731.010       80.603014       28.444725       1
       10743.469       74.348995       31.074993       1
       10755.928       81.536592       27.017928       1
       10768.387       77.655723       30.950532       1
       10780.846       75.211148       27.796403       1
       10793.305       99.416148       32.847044       1
       10805.763       82.200822       26.978965       1
       10818.222       76.532736       30.657928       1
       10830.681       73.375351       26.875939       1
       10843.140       104.95642       31.183123       1
       10855.599       63.388606       26.706568       1
       10868.058       80.453638       30.636337       1
       10880.517       82.899911       26.734555       1
       10892.976       75.643506       33.335991       1
       10905.435       75.833278       26.252794       1
       10917.894       68.392323       30.324712       1
       10930.353       76.012981       26.341711       1
       10942.812       69.839913       30.122368       1
       10955.271       82.923028       26.094796       1
       10967.730       82.167601       30.267673       1
       10980.189       78.658365       27.527749       1
       10992.648       73.403571       29.906998       1
       11005.107       67.270138       27.247362       1
       11017.566       68.021168       30.064976       1
       11030.025       78.727321       25.958940       1
       11042.484       80.407745       29.890668       1
       11054.943       101.55050       26.986798       1
       11067.401       80.016706       29.979637       1
       11079.860       77.643312       26.053872       1
       11092.319       55.527562       29.879050       1
       11104.778       81.471470       26.155228       1
       11117.237       86.083010       30.103129       1
       11129.696       87.095876       26.053610       1
       11142.155       81.791236       29.896355       1
       11154.614       77.332991       26.060255       1
       11167.073       100.92086       29.905007       1
       11179.532       96.823902       26.322426       1
       11191.991       58.958652       32.296089       1
       11204.450       64.634747       26.101476       0
       11216.909       71.652544       29.966716       0
       11229.368       79.424859       25.983469       0
       11241.827       79.006350       29.861597       0
       11254.286       83.195998       26.302814       0
       11266.745       80.952795       29.898918       0
       11279.204       93.493977       27.497770       0
       11291.663       87.260151       29.809107       0
       11304.122       62.584169       26.539588       0
       11316.580       83.343898       32.063851       0
       11329.039       75.929036       25.670238       0
       11341.498       80.485462       29.484471       0
       11353.957       45.830482       25.903737       0
       11366.416       62.529874       30.024150       0
       11378.875       60.187962       26.399436       0
       11391.334       73.308323       30.918326       0
       11403.793       76.314334       28.163819       0
       11416.252       41.690967       33.660643       0
       11428.711       61.276849       31.588234       0
       11441.170       76.784489       41.290070       0
       11453.629       68.921886       37.750418       0
       11466.088       74.272615       48.026826       0
       11478.547       55.100891       47.225465       0
       11491.006       98.251726       61.420632       0
       11503.465       78.467951       60.654722       0
       11515.924       55.801222       78.831070       0
       11528.383       64.216936       76.691742       0
       11540.842       60.005946       98.101830       0
       11553.301       4.2459311       93.944887       0
       11565.760       75.356602       126.16438       0
       11578.218       144.98799       120.41114       0
       11590.677       135.50978       170.46543       0
       11603.136       146.87146       158.93584       0
       11615.595       69.432410       225.40632       0
       11628.054       61.456306       230.54857       0
       11640.513       60.423959       315.54694       0
       11652.972       148.84399       350.52953       0
       11665.431       376.34402       486.12123       0
       11677.890      -361.56729       515.27587       0
       11690.349      -38.194641       809.73352       0
       11702.808      -171.94239       754.82681       0
       11715.267      -613.83446       1116.4026       0
       11727.726       820.33441       1243.0073       0
       11740.185       1175.5947       1746.2383       0
       11752.644      -800.38145       1974.2219       0
       11765.103       1361.7484       2968.0555       0
       11777.562       849.97488       3400.4967       0
       11790.021       411.62696       4928.7966       0
       11802.480       601.35615       5028.8759       0
       11814.939       6234.8989       6067.0691       0
       11827.397      -2306.7278       5265.2220       0
       11839.856       1948.7995       5656.5987       0
       11852.315      -3291.6398       4831.1768       0
       11864.774      -133.54445       5550.9744       0
       11877.233      -2297.0169       5514.1187       0
       11889.692      -987.26298       6962.1855       0
       11902.151       1161.6600       6532.4716       0
       11914.610      -3411.0518       9203.5881       0
       11927.069      -4052.6017       8916.5249       0
       11939.528      -8631.0625       12019.615       0
       11951.987       795.32184       12439.548       0
       11964.446       1026.8913       15844.422       0
       11976.905       278.91566       15668.728       0
       11989.364       7576.6178       21441.766       0
