#WAVELENGTH FLUX ERROR MASK
       7487.9345       16384.511       33621.591       0
       7499.9587      -2406.0773       29931.791       0
       7511.9829       7963.7324       23815.546       0
       7524.0071      -923.01381       21180.963       0
       7536.0313      -3441.9280       17202.462       0
       7548.0555      -2849.7194       15020.801       0
       7560.0796       542.56219       11806.121       0
       7572.1038       4957.2996       10008.693       0
       7584.1280       385.39965       7194.8377       0
       7596.1522       683.21490       6042.3407       0
       7608.1764      -271.55056       4846.9297       0
       7620.2005       1311.2216       4401.1061       0
       7632.2247      -162.11802       3560.5866       0
       7644.2489      -815.17987       3241.6898       0
       7656.2731      -152.45767       2650.8636       0
       7668.2973       2175.3657       2382.4736       0
       7680.3214       386.56087       1870.3577       0
       7692.3456       786.28228       1702.5991       0
       7704.3698      -293.75595       1308.9678       0
       7716.3940      -563.61555       1275.3384       0
       7728.4182       589.53469       1004.1864       0
       7740.4423       59.461464       975.94024       0
       7752.4665       399.33589       834.26865       0
       7764.4907       15.336589       803.83369       0
       7776.5149       714.10397       711.66218       0
       7788.5391       625.05235       686.80020       0
       7800.5633       268.23123       636.77041       0
       7812.5874       340.18834       563.72341       0
       7824.6116       270.02893       489.25295       0
       7836.6358       303.71486       492.95004       0
       7848.6600       135.29856       391.26701       0
       7860.6842       178.39673       397.01391       0
       7872.7083       275.90150       332.99296       0
       7884.7325       285.69779       319.48779       0
       7896.7567       66.609992       276.50322       0
       7908.7809       288.59570       294.40086       0
       7920.8051       98.969271       263.25203       0
       7932.8292       64.964620       245.65242       0
       7944.8534       268.85679       229.14641       0
       7956.8776       194.46757       227.13747       0
       7968.9018       198.86204       205.89566       0
       7980.9260       74.543139       210.59887       0
       7992.9502       235.73824       191.63734       0
       8004.9743       238.54212       195.20617       0
       8016.9985       211.64643       179.81940       0
       8029.0227       181.25962       184.53882       0
       8041.0469       274.03359       175.65506       0
       8053.0711       274.80711       177.32875       0
       8065.0952       202.98338       168.08557       0
       8077.1194       194.69070       179.22411       0
       8089.1436       209.76764       168.91323       0
       8101.1678       244.65235       168.74532       0
       8113.1920       152.07159       168.78964       0
       8125.2161       235.56655       172.69373       0
       8137.2403       124.87409       158.53932       0
       8149.2645       164.94372       155.47023       0
       8161.2887       192.44955       150.96283       1
       8173.3129       173.88480       150.05583       1
       8185.3370       99.079065       139.67915       1
       8197.3612       146.71940       150.72673       1
       8209.3854       235.45369       133.41914       1
       8221.4096       156.24377       136.73701       1
       8233.4338       168.64957       139.82666       1
       8245.4580       152.15153       130.24549       1
       8257.4821       117.01718       125.20253       1
       8269.5063       145.03468       128.49791       1
       8281.5305       188.03622       129.32461       1
       8293.5547       93.000925       124.69234       1
       8305.5789       127.75074       115.92857       1
       8317.6030       170.49880       113.91137       1
       8329.6272       181.26699       107.71215       1
       8341.6514       143.76130       112.82645       1
       8353.6756       69.157078       104.10677       1
       8365.6998       187.85599       115.04423       1
       8377.7239       185.98801       101.17188       1
       8389.7481       112.46460       111.45208       1
       8401.7723       181.31810       98.962787       1
       8413.7965       169.37108       104.35029       1
       8425.8207       215.27814       103.44469       1
       8437.8448       145.17981       104.82451       1
       8449.8690       148.07069       91.586129       1
       8461.8932       179.43049       100.23932       1
       8473.9174       193.37015       91.860299       1
       8485.9416       145.41092       95.340206       1
       8497.9658       118.34600       86.367951       1
       8509.9899       91.733192       94.927018       1
       8522.0141       142.94624       84.664457       1
       8534.0383       89.798697       87.951133       1
       8546.0625       169.41086       85.987980       1
       8558.0867       148.28495       90.847130       1
       8570.1108       155.61282       81.931487       1
       8582.1350       93.697144       91.944457       1
       8594.1592       121.50337       81.140400       1
       8606.1834       90.951494       85.017280       1
       8618.2076       138.44223       85.703883       1
       8630.2317       107.76349       85.438433       1
       8642.2559       196.32644       86.646053       1
       8654.2801       186.95069       85.014853       1
       8666.3043       134.07786       78.879801       1
       8678.3285       151.57986       83.300700       1
       8690.3527       130.92200       76.697194       1
       8702.3768       127.60878       79.745386       1
       8714.4010       142.83881       74.408528       1
       8726.4252       143.56359       82.252302       1
       8738.4494       133.23413       71.555479       1
       8750.4736       86.705514       74.160356       1
       8762.4977       106.34120       69.466559       1
       8774.5219       106.42710       72.342529       1
       8786.5461       139.91833       68.991661       1
       8798.5703       100.51524       71.458106       1
       8810.5945       133.64588       67.462740       1
       8822.6186       138.08011       70.714442       1
       8834.6428       125.33174       65.774745       1
       8846.6670       152.81601       69.373454       1
       8858.6912       149.37281       64.738217       1
       8870.7154       126.68562       68.643919       1
       8882.7395       117.79760       63.038432       1
       8894.7637       135.40518       68.943793       1
       8906.7879       105.85746       62.211820       1
       8918.8121       134.02197       66.632120       1
       8930.8363       112.65261       61.315812       1
       8942.8605       107.69117       63.887655       1
       8954.8846       105.67327       66.343645       1
       8966.9088       140.57809       66.732554       1
       8978.9330       156.10331       60.239148       1
       8990.9572       119.78662       61.741116       1
       9002.9814       119.76730       59.683175       1
       9015.0055       102.12617       61.135995       1
       9027.0297       127.68479       57.450083       1
       9039.0539       109.68293       61.360896       1
       9051.0781       152.80637       61.598323       1
       9063.1023       130.52650       60.300896       1
       9075.1264       108.38991       57.440695       1
       9087.1506       124.55171       59.605314       1
       9099.1748       158.02375       56.340368       1
       9111.1990       155.79432       61.903228       1
       9123.2232       104.74519       55.744024       1
       9135.2473       104.39773       57.887484       1
       9147.2715       118.01594       53.546592       1
       9159.2957       112.08467       56.861053       1
       9171.3199       114.02621       53.812681       1
       9183.3441       145.41500       60.126989       1
       9195.3683       112.63917       52.175994       1
       9207.3924       112.13377       58.088894       1
       9219.4166       114.38810       56.346250       1
       9231.4408       122.07040       55.942057       1
       9243.4650       106.01156       49.709907       1
       9255.4892       134.71754       53.470933       1
       9267.5133       114.26392       49.327418       1
       9279.5375       102.36781       52.291772       1
       9291.5617       137.14130       49.120711       1
       9303.5859       115.64130       51.140242       1
       9315.6101       114.89413       48.279281       1
       9327.6342       123.49854       52.940391       1
       9339.6584       117.85534       47.810431       1
       9351.6826       137.24164       50.512682       1
       9363.7068       114.05783       47.569221       1
       9375.7310       85.162403       49.716741       1
       9387.7552       118.25201       46.963439       1
       9399.7793       131.26777       50.714525       1
       9411.8035       122.25817       46.866504       1
       9423.8277       137.13513       49.080586       1
       9435.8519       145.75532       46.992076       1
       9447.8761       76.184109       47.471753       1
       9459.9002       119.01899       48.419786       1
       9471.9244       79.006619       47.034959       1
       9483.9486       109.41602       44.403447       1
       9495.9728       104.73222       46.717774       1
       9507.9970       120.46295       44.257403       1
       9520.0211       132.53098       47.428379       1
       9532.0453       88.800740       43.703399       1
       9544.0695       81.244577       45.790422       1
       9556.0937       98.027457       43.063109       1
       9568.1179       139.61184       45.851564       1
       9580.1420       103.97071       44.382974       1
       9592.1662       101.95452       45.651313       1
       9604.1904       94.599897       42.546258       1
       9616.2146       124.60810       44.592953       1
       9628.2388       105.95739       42.237199       1
       9640.2630       84.955379       44.267075       1
       9652.2871       105.58981       41.741083       1
       9664.3113       82.362902       43.510115       1
       9676.3355       102.66381       41.377469       1
       9688.3597       105.30670       43.376741       1
       9700.3839       111.40930       41.176936       1
       9712.4080       122.66618       43.233757       1
       9724.4322       96.281115       40.492931       1
       9736.4564       110.87892       42.813087       1
       9748.4806       88.603786       40.031465       1
       9760.5048       84.408498       42.322874       1
       9772.5289       88.384669       39.500078       1
       9784.5531       116.07985       42.057007       1
       9796.5773       79.417063       39.314484       1
       9808.6015       104.43807       41.664138       1
       9820.6257       95.384975       39.034369       1
       9832.6498       61.660041       43.874527       1
       9844.6740       72.826611       39.294486       1
       9856.6982       80.903032       41.038862       1
       9868.7224       86.524157       41.320729       1
       9880.7466       114.96855       41.429657       1
       9892.7708       79.921489       38.415329       1
       9904.7949       81.019537       40.666512       1
       9916.8191       89.253239       38.653463       1
       9928.8433       77.625865       40.543302       1
       9940.8675       88.229591       38.142333       1
       9952.8917       93.750498       40.332993       1
       9964.9158       95.176733       37.835755       1
       9976.9400       90.752105       40.857400       1
       9988.9642       84.476405       37.434052       1
       10000.988       94.261821       41.497213       1
       10013.013       71.466142       37.008576       1
       10025.037       81.237303       38.873245       1
       10037.061       74.015532       36.629547       1
       10049.085       84.539579       38.374213       1
       10061.109       88.387728       36.318223       1
       10073.133       65.842140       37.871605       1
       10085.158       69.106877       36.203716       1
       10097.182       75.206809       38.177013       1
       10109.206       61.564453       36.186886       1
       10121.230       74.826841       37.978193       1
       10133.254       66.188968       35.995775       1
       10145.279       63.325346       37.640273       1
       10157.303       80.896097       35.816039       1
       10169.327       71.430174       37.455941       1
       10181.351       84.888112       35.485682       1
       10193.375       65.056821       37.431276       1
       10205.399       72.686455       35.475466       1
       10217.424       84.242003       37.354414       1
       10229.448       63.901114       35.085153       1
       10241.472       68.801990       36.613296       1
       10253.496       90.606910       34.932977       1
       10265.520       72.252784       36.598791       1
       10277.545       78.330423       34.384908       1
       10289.569       95.463499       36.960792       1
       10301.593       66.573588       34.191349       1
       10313.617       49.317796       37.848948       1
       10325.641       59.931810       33.617213       1
       10337.665       60.538128       36.234201       1
       10349.690       72.777766       33.490991       1
       10361.714       85.682284       35.419281       1
       10373.738       75.078943       35.492278       1
       10385.762       83.616360       35.204774       1
       10397.786       62.928357       37.385230       1
       10409.811       86.537758       35.621687       1
       10421.835       89.515456       35.989940       1
       10433.859       81.092227       35.560812       1
       10445.883       71.074521       33.269757       1
       10457.907       77.002746       35.140423       1
       10469.931       70.131556       32.998665       1
       10481.956       57.810738       34.927217       1
       10493.980       52.610572       32.858619       1
       10506.004       54.617397       34.496930       1
       10518.028       70.930114       33.069447       1
       10530.052       63.919720       35.091564       1
       10542.077       59.318858       32.859474       1
       10554.101       72.967375       34.992639       1
       10566.125       48.696643       36.241106       1
       10578.149       74.879150       35.239625       1
       10590.173       56.621662       33.498322       1
       10602.197       72.081405       34.792513       1
       10614.222       31.979145       32.422421       1
       10626.246       80.701379       34.486338       1
       10638.270       59.331072       32.364055       1
       10650.294       77.155613       34.215100       1
       10662.318       64.691981       32.235560       1
       10674.343       35.529157       33.417918       1
       10686.367       73.976700       34.659827       1
       10698.391       81.543300       33.461408       1
       10710.415       53.705421       31.852327       1
       10722.439       84.711177       33.763810       1
       10734.463       77.831402       32.082554       1
       10746.488       52.530988       33.249666       1
       10758.512       77.651814       31.865578       1
       10770.536       67.857803       33.573458       1
       10782.560       63.736669       31.374202       1
       10794.584       53.183112       32.845138       1
       10806.609       58.307007       31.280676       1
       10818.633       59.195029       33.178694       1
       10830.657       71.365965       31.401761       1
       10842.681       52.978307       35.082571       1
       10854.705       65.176946       31.246504       1
       10866.729       65.267790       32.963649       1
       10878.754       71.577635       30.932271       1
       10890.778       48.082396       32.355068       1
       10902.802       49.112943       30.647850       1
       10914.826       86.740416       33.039070       1
       10926.850       56.088147       30.542285       1
       10938.875       71.374032       32.395214       1
       10950.899       66.335627       33.108063       1
       10962.923       52.358573       32.330310       1
       10974.947       61.568130       30.517073       1
       10986.971       69.347566       32.347936       1
       10998.995       62.400630       30.494397       1
       11011.020       94.546207       32.873000       1
       11023.044       54.848773       30.543660       1
       11035.068       71.575958       33.441036       1
       11047.092       65.963719       30.462113       1
       11059.116       67.294982       33.882239       1
       11071.140       59.209074       30.541405       1
       11083.165       65.062127       32.051626       1
       11095.189       54.232222       30.320114       1
       11107.213       64.698670       32.081115       1
       11119.237       63.421076       30.278285       1
       11131.261       75.408357       33.447480       1
       11143.286       61.790346       30.772246       1
       11155.310       64.465611       35.950322       1
       11167.334       62.038329       32.026085       1
       11179.358       71.349978       32.235761       1
       11191.382       49.876312       30.349777       1
       11203.406       41.808373       32.024233       0
       11215.431       67.682949       30.397471       0
       11227.455       62.377042       31.784578       0
       11239.479       74.851823       30.348142       0
       11251.503       61.306867       31.949499       0
       11263.527       59.002084       30.242690       0
       11275.552       54.863544       31.942590       0
       11287.576       58.736068       30.308380       0
       11299.600       55.884568       32.580551       0
       11311.624       52.989243       30.077189       0
       11323.648       50.604664       31.694681       0
       11335.672       63.920968       31.158479       0
       11347.697       67.279833       34.154176       0
       11359.721       68.210226       31.266537       0
       11371.745       44.316350       33.849567       0
       11383.769       60.591920       33.003701       0
       11395.793       67.586494       36.881064       0
       11407.818       60.731719       37.088250       0
       11419.842       39.399924       42.064297       0
       11431.866       57.625671       44.369676       0
       11443.890       34.738324       51.830434       0
       11455.914       71.697779       55.390431       0
       11467.938       32.469759       66.128024       0
       11479.963       47.894866       71.070074       0
       11491.987       86.894742       84.818003       0
       11504.011       73.123168       90.036579       0
       11516.035       37.898765       104.75092       0
       11528.059       26.078913       120.67226       0
       11540.084      -18.591726       128.17630       0
       11552.108       121.11573       136.53092       0
       11564.132      -7.3008010       161.42052       0
       11576.156       38.789951       177.75146       0
       11588.180       150.53467       221.38464       0
       11600.204      -47.248657       251.09526       0
       11612.229       51.533049       324.85749       0
       11624.253      -54.486174       379.22660       0
       11636.277      -202.84445       490.95306       0
       11648.301       9.7772178       575.81026       0
       11660.325       74.545607       741.76018       0
       11672.350       631.00047       850.29225       0
       11684.374      -643.37116       1061.1135       0
       11696.398      -305.82493       1249.3593       0
       11708.422       773.56380       1702.9229       0
       11720.446      -461.32770       2064.0659       0
       11732.470      -82.701251       2801.8962       0
       11744.495      -3072.4491       3461.6071       0
       11756.519      -447.24572       4928.7440       0
       11768.543      -982.80580       5414.9294       0
       11780.567      -7328.5602       6277.6203       0
       11792.591      -2243.0861       6044.0625       0
       11804.616      -5136.6666       6268.4358       0
