#WAVELENGTH FLUX ERROR MASK
       7487.9345       3890.2397       35082.153       0
       7499.9587       3264.1511       30508.532       0
       7511.9829      -5139.0674       24211.052       0
       7524.0071       1247.4658       21651.830       0
       7536.0313       2253.0218       17374.727       0
       7548.0555      -1239.0303       14651.208       0
       7560.0796       4578.1062       11140.070       0
       7572.1038       4563.5386       9381.4952       0
       7584.1280       2906.4117       7076.5234       0
       7596.1522      -3358.1551       6081.1759       0
       7608.1764       625.07021       4905.4994       0
       7620.2005       1394.3897       4438.6342       0
       7632.2247       1187.5152       3627.4214       0
       7644.2489       2093.0272       3406.1172       0
       7656.2731       821.44708       2697.1096       0
       7668.2973       1495.8699       2588.9590       0
       7680.3214       330.35514       1897.9893       0
       7692.3456      -38.960859       1730.1018       0
       7704.3698      -78.499410       1336.2909       0
       7716.3940       524.71297       1227.9417       0
       7728.4182       415.99887       1019.5370       0
       7740.4423       1.6577413       964.47142       0
       7752.4665       383.10960       875.91142       0
       7764.4907       431.84017       816.54124       0
       7776.5149       239.31277       770.32606       0
       7788.5391       469.54490       697.15715       0
       7800.5633       205.85275       604.36374       0
       7812.5874       272.86232       590.64880       0
       7824.6116       376.47563       508.28391       0
       7836.6358       192.86873       463.61374       0
       7848.6600       208.51044       406.23892       0
       7860.6842       116.85222       375.08180       0
       7872.7083       111.48018       321.75687       0
       7884.7325       165.25754       321.30381       0
       7896.7567       170.41526       277.12436       0
       7908.7809       234.27389       291.77821       0
       7920.8051       151.49063       252.83919       0
       7932.8292       156.60537       253.21646       0
       7944.8534       145.06248       226.08788       0
       7956.8776       113.97206       230.49634       0
       7968.9018       123.81193       206.56630       0
       7980.9260       86.575206       209.44814       0
       7992.9502       130.98014       200.74609       0
       8004.9743       228.87705       199.10950       0
       8016.9985       168.23133       207.81564       0
       8029.0227       101.75669       198.92524       0
       8041.0469       169.60688       185.98798       0
       8053.0711       72.183730       176.23439       0
       8065.0952       118.24385       173.91465       0
       8077.1194       101.61340       168.74990       0
       8089.1436       146.70943       156.66751       0
       8101.1678       196.02191       164.01108       0
       8113.1920       148.46354       154.98394       0
       8125.2161       111.66729       156.42564       0
       8137.2403       112.09855       145.73748       0
       8149.2645       138.42083       153.37037       0
       8161.2887       159.89200       149.31957       1
       8173.3129       177.14540       151.32316       1
       8185.3370       158.49926       144.33082       1
       8197.3612       217.94332       157.19855       1
       8209.3854       91.410653       130.57899       1
       8221.4096       173.29512       147.21552       1
       8233.4338       158.14821       124.96417       1
       8245.4580       84.258564       136.88326       1
       8257.4821       129.75794       118.56546       1
       8269.5063       58.647552       115.83775       1
       8281.5305       148.39695       113.43948       1
       8293.5547       115.46693       126.76860       1
       8305.5789       105.17422       108.17418       1
       8317.6030       193.62571       119.77481       1
       8329.6272       95.044277       105.53588       1
       8341.6514       120.39094       114.76882       1
       8353.6756       131.57530       101.32999       1
       8365.6998       146.19380       108.78109       1
       8377.7239       96.057724       101.56999       1
       8389.7481       109.89951       107.17285       1
       8401.7723       92.703665       97.712267       1
       8413.7965       68.035007       103.05466       1
       8425.8207       55.475367       95.476041       1
       8437.8448       117.89862       101.92685       1
       8449.8690       96.737590       89.801267       1
       8461.8932       128.14649       93.627629       1
       8473.9174       116.51540       88.088936       1
       8485.9416       126.82154       91.036036       1
       8497.9658       105.70767       88.970681       1
       8509.9899       113.81228       89.886045       1
       8522.0141       124.64489       83.132347       1
       8534.0383       116.11756       87.257355       1
       8546.0625       90.422322       82.854364       1
       8558.0867       131.21501       90.079391       1
       8570.1108       63.872489       83.721673       1
       8582.1350       99.371790       84.633601       1
       8594.1592       125.50711       80.527126       1
       8606.1834       116.45762       84.269245       1
       8618.2076       154.24732       80.289217       1
       8630.2317       151.31318       84.034776       1
       8642.2559       142.41533       79.042104       1
       8654.2801       129.60436       82.928931       1
       8666.3043       109.78676       77.422335       1
       8678.3285       118.17600       81.330203       1
       8690.3527       105.91185       83.281102       1
       8702.3768       101.40329       82.407290       1
       8714.4010       90.021999       76.210029       1
       8726.4252       66.013687       76.812976       1
       8738.4494       111.70155       69.937340       1
       8750.4736       78.278245       73.963493       1
       8762.4977       83.662092       68.515545       1
       8774.5219       103.82327       71.688953       1
       8786.5461       127.30699       68.541643       1
       8798.5703       71.900231       69.919640       1
       8810.5945       116.33809       69.025284       1
       8822.6186       98.334758       69.662487       1
       8834.6428       102.27719       69.493340       1
       8846.6670       104.20478       67.720317       1
       8858.6912       93.878578       67.108450       1
       8870.7154       98.849013       69.578817       1
       8882.7395       109.90021       64.414106       1
       8894.7637       83.602409       65.291530       1
       8906.7879       86.383843       61.372210       1
       8918.8121       100.18112       64.658560       1
       8930.8363       84.993569       60.774804       1
       8942.8605       95.460131       63.675627       1
       8954.8846       104.33649       59.597779       1
       8966.9088       59.113621       62.431272       1
       8978.9330       108.20151       58.325896       1
       8990.9572       99.371294       61.585705       1
       9002.9814       71.352166       57.274571       1
       9015.0055       76.787299       62.168957       1
       9027.0297       91.473341       56.797365       1
       9039.0539       70.178284       64.136150       1
       9051.0781       86.024287       56.716184       1
       9063.1023       113.51062       60.260068       1
       9075.1264       107.06121       58.790895       1
       9087.1506       109.34625       61.879712       1
       9099.1748       92.464811       58.560150       1
       9111.1990       106.87853       58.830884       1
       9123.2232       85.399730       56.023126       1
       9135.2473       104.61830       61.065943       1
       9147.2715       94.312558       54.034923       1
       9159.2957       70.480977       56.148092       1
       9171.3199       68.293563       52.917314       1
       9183.3441       108.41462       55.638066       1
       9195.3683       97.093787       56.693430       1
       9207.3924       73.270054       54.057142       1
       9219.4166       95.043810       56.795500       1
       9231.4408       56.132752       54.131014       1
       9243.4650       57.607993       54.757739       1
       9255.4892       96.476000       52.646411       1
       9267.5133       85.106604       50.834710       1
       9279.5375       65.032182       52.482978       1
       9291.5617       90.524656       49.093323       1
       9303.5859       78.916610       51.937661       1
       9315.6101       73.712187       48.491896       1
       9327.6342       95.705492       50.839239       1
       9339.6584       77.372974       47.976130       1
       9351.6826       92.253691       52.708529       1
       9363.7068       70.328852       45.277621       1
       9375.7310       87.334583       53.105868       1
       9387.7552       65.460027       47.222442       1
       9399.7793       85.515672       50.426355       1
       9411.8035       62.025922       48.803099       1
       9423.8277       70.286768       48.815511       1
       9435.8519       73.623968       48.143335       1
       9447.8761       55.557100       48.838807       1
       9459.9002       95.675301       45.664603       1
       9471.9244       61.237943       51.396351       1
       9483.9486       75.201776       47.012280       1
       9495.9728       83.488165       47.240422       1
       9507.9970       86.971889       45.127746       1
       9520.0211       54.147937       46.626043       1
       9532.0453       92.005804       44.989191       1
       9544.0695       54.425557       46.536874       1
       9556.0937       79.729975       45.968681       1
       9568.1179       86.794794       46.652522       1
       9580.1420       80.288315       43.489474       1
       9592.1662       56.679793       45.885764       1
       9604.1904       77.251411       44.680485       1
       9616.2146       87.660470       45.104671       1
       9628.2388       63.219773       42.808370       1
       9640.2630       86.469148       44.550630       1
       9652.2871       85.169138       42.109512       1
       9664.3113       86.462903       44.852910       1
       9676.3355       78.429210       41.731456       1
       9688.3597       54.642279       43.495563       1
       9700.3839       83.480753       41.535331       1
       9712.4080       79.564974       43.349478       1
       9724.4322       85.617971       42.972988       1
       9736.4564       73.694918       43.630315       1
       9748.4806       81.016742       41.013663       1
       9760.5048       52.117339       44.145891       1
       9772.5289       70.335029       41.724889       1
       9784.5531       59.958073       44.917779       1
       9796.5773       73.337130       39.846989       1
       9808.6015       50.675875       41.886406       1
       9820.6257       71.254739       39.468262       1
       9832.6498       46.808814       41.399007       1
       9844.6740       52.791038       39.251346       1
       9856.6982       69.071125       41.873270       1
       9868.7224       83.814372       41.248010       1
       9880.7466       83.347895       43.224240       1
       9892.7708       73.312483       40.909121       1
       9904.7949       56.848865       41.723912       1
       9916.8191       72.530036       38.774956       1
       9928.8433       62.883981       40.717814       1
       9940.8675       64.784394       38.349278       1
       9952.8917       67.700103       40.524461       1
       9964.9158       46.643384       37.879575       1
       9976.9400       53.810534       39.924773       1
       9988.9642       62.891982       37.525122       1
       10000.988       49.024362       38.979156       1
       10013.013       46.672904       38.318906       1
       10025.037       51.098131       38.797309       1
       10037.061       64.490061       36.709375       1
       10049.085       53.982358       38.710929       1
       10061.109       57.065818       36.467509       1
       10073.133       45.435137       38.298812       1
       10085.158       63.404779       36.597755       1
       10097.182       37.209469       38.405019       1
       10109.206       48.409614       36.529172       1
       10121.230       46.950425       38.224950       1
       10133.254       43.911542       36.217538       1
       10145.279       56.611297       38.286352       1
       10157.303       74.561763       36.050628       1
       10169.327       51.729319       37.790423       1
       10181.351       68.913990       35.308817       1
       10193.375       72.180239       36.994705       1
       10205.399       66.254325       35.886283       1
       10217.424       54.188737       37.285815       1
       10229.448       56.230969       34.620639       1
       10241.472       71.641075       37.492810       1
       10253.496       45.396194       34.394926       1
       10265.520       42.641978       35.909571       1
       10277.545       53.572206       34.081102       1
       10289.569       55.098595       35.781469       1
       10301.593       42.797756       33.533180       1
       10313.617       57.582414       35.323505       1
       10325.641       57.807423       33.319783       1
       10337.665       25.668031       34.717218       1
       10349.690       47.696842       33.039548       1
       10361.714       58.036652       35.283844       1
       10373.738       46.452570       33.067912       1
       10385.762       55.620504       34.963541       1
       10397.786       39.259126       32.963144       1
       10409.811       53.955096       34.854765       1
       10421.835       36.700360       32.857536       1
       10433.859       57.370508       34.550742       1
       10445.883       39.993461       32.950007       1
       10457.907       37.579582       35.901764       1
       10469.931       42.802552       33.824791       1
       10481.956       53.086151       34.188187       1
       10493.980       41.848526       32.600000       1
       10506.004       57.850289       34.228939       1
       10518.028       47.211967       33.198207       1
       10530.052       53.978584       34.336123       1
       10542.077       39.910845       32.341377       1
       10554.101       53.432373       34.805661       1
       10566.125       65.971015       32.452894       1
       10578.149       53.647157       34.230465       1
       10590.173       39.457853       32.832665       1
       10602.197       39.231835       33.936170       1
       10614.222       47.297489       32.075534       1
       10626.246       47.044930       34.298905       1
       10638.270       37.713145       31.816967       1
       10650.294       62.741200       34.566837       1
       10662.318       42.863740       31.602913       1
       10674.343       51.157481       33.194274       1
       10686.367       39.275691       31.161044       1
       10698.391       57.600218       34.562960       1
       10710.415       51.048028       33.986342       1
       10722.439       51.204879       33.068469       1
       10734.463       32.663817       31.244437       1
       10746.488       44.206574       33.349222       1
       10758.512       56.429712       30.962318       1
       10770.536       41.789746       32.751099       1
       10782.560       56.771735       32.319142       1
       10794.584       41.029053       32.598502       1
       10806.609       52.589074       30.809225       1
       10818.633       37.772719       32.467401       1
       10830.657       48.003124       30.703079       1
       10842.681       55.106900       32.561563       1
       10854.705       48.345960       30.454531       1
       10866.729       26.110935       32.039917       1
       10878.754       42.576612       31.171557       1
       10890.778       38.008447       33.246653       1
       10902.802       48.464260       31.631189       1
       10914.826       56.232401       32.638126       1
       10926.850       37.303418       30.390071       1
       10938.875       51.417066       31.852540       1
       10950.899       35.165014       31.461103       1
       10962.923       46.415327       32.068932       1
       10974.947       50.032219       30.731459       1
       10986.971       33.644253       31.944109       1
       10998.995       46.825485       30.328787       1
       11011.020       55.443136       32.036789       1
       11023.044       48.423043       30.315369       1
       11035.068       20.473567       31.819546       1
       11047.092       48.120612       30.240556       1
       11059.116       54.709718       31.891685       1
       11071.140       52.702440       30.208230       1
       11083.165       31.173753       32.216779       1
       11095.189       39.523015       29.982852       1
       11107.213       48.620508       32.132794       1
       11119.237       32.468103       29.913021       1
       11131.261       27.138349       31.621103       1
       11143.286       27.162298       29.484961       1
       11155.310       43.327528       31.651212       1
       11167.334       36.602112       29.867170       1
       11179.358       44.757057       33.536858       1
       11191.382       43.120591       30.184137       1
       11203.406       26.326983       33.794850       0
       11215.431       55.434678       30.089447       0
       11227.455       39.123413       34.729885       0
       11239.479       32.663816       30.314310       0
       11251.503       33.593626       31.868434       0
       11263.527       24.846060       30.586480       0
       11275.552       29.679679       31.885368       0
       11287.576       40.826487       31.529609       0
       11299.600       45.136117       32.158803       0
       11311.624       43.064454       31.842674       0
       11323.648       36.424410       31.592289       0
       11335.672       33.161623       33.095416       0
       11347.697       27.597830       32.221491       0
       11359.721       31.961987       31.690235       0
       11371.745      0.85732008       34.141029       0
       11383.769       14.588069       33.074107       0
       11395.793       38.077928       38.144489       0
       11407.818       34.976025       37.294422       0
       11419.842       21.955998       43.604678       0
       11431.866       13.110300       44.495451       0
       11443.890       22.486106       52.264038       0
       11455.914       14.647944       55.213676       0
       11467.938       31.084287       66.470637       0
       11479.963       29.840436       71.600442       0
       11491.987       82.718635       87.012170       0
       11504.011      -1.6242843       90.468656       0
       11516.035     -0.76740377       106.73196       0
       11528.059       8.2442291       116.87850       0
       11540.084       41.748284       130.61965       0
       11552.108       48.846208       140.13788       0
       11564.132       26.472425       165.10217       0
       11576.156       9.5788027       180.38258       0
       11588.180       12.002551       224.26959       0
       11600.204       58.278412       255.36586       0
       11612.229       76.659176       332.76004       0
       11624.253       39.537167       387.91167       0
       11636.277       159.03818       506.64006       0
       11648.301      -186.01048       588.53167       0
       11660.325      -82.114419       750.49502       0
       11672.350       166.23363       861.39566       0
       11684.374       10.365495       1119.9400       0
       11696.398       355.27552       1268.4445       0
       11708.422      -703.61691       1736.1684       0
       11720.446       670.65564       2249.8453       0
       11732.470       240.96901       2850.5978       0
       11744.495      -410.00263       3544.4138       0
       11756.519       949.44031       5045.5898       0
       11768.543      -1894.3072       5503.6147       0
       11780.567       26.937672       6565.7065       0
       11792.591       626.39857       6204.3331       0
       11804.616      -572.22075       6639.7731       0
