#WAVELENGTH FLUX ERROR MASK
       7495.4623      -5142.1853       32624.317       0
       7507.7220      -9055.5723       25541.474       0
       7519.9818      -20757.175       23113.417       0
       7532.2415       129.60363       18429.413       0
       7544.5013      -5175.3527       15781.978       0
       7556.7610      -1204.4238       11868.616       0
       7569.0208       4387.8768       10169.020       0
       7581.2805      -169.46757       7486.5434       0
       7593.5403       3443.2957       6476.5834       0
       7605.8000      -3705.4895       5039.8925       0
       7618.0598       2318.6270       4573.2788       0
       7630.3195      -175.81236       3699.1656       0
       7642.5793       287.56069       3401.6172       0
       7654.8390      -1163.0211       2948.3263       0
       7667.0987      -665.87867       2435.0582       0
       7679.3585       360.87431       1924.8865       0
       7691.6182      -755.49971       1696.3233       0
       7703.8780       1179.7285       1372.1596       0
       7716.1377       411.71812       1234.0546       0
       7728.3975       598.73321       1117.9332       0
       7740.6572       309.35414       1006.9864       0
       7752.9170      -100.09876       864.87739       0
       7765.1767       329.97503       821.17690       0
       7777.4365       150.92279       716.29011       0
       7789.6962      -431.91231       689.35368       0
       7801.9560       240.27686       599.59093       0
       7814.2157       2.9318703       568.68455       0
       7826.4755      -89.610034       481.67123       0
       7838.7352       149.94812       456.65156       0
       7850.9949      -115.99519       388.69685       0
       7863.2547       72.252825       373.15244       0
       7875.5144       125.59844       347.50669       0
       7887.7742       17.680591       317.22316       0
       7900.0339       142.44159       282.37867       0
       7912.2937      -32.799851       285.41227       0
       7924.5534       59.444412       251.26081       0
       7936.8132       182.99894       272.50929       0
       7949.0729       121.21670       227.76081       0
       7961.3327       25.223383       234.86413       0
       7973.5924       65.314867       209.97746       0
       7985.8522       4.4896377       236.55137       0
       7998.1119      -28.043540       194.89209       0
       8010.3717      -89.582740       221.68976       0
       8022.6314       66.327004       183.58162       0
       8034.8911       67.468203       193.61414       0
       8047.1509       181.25271       177.58635       0
       8059.4106      -13.179089       184.90931       0
       8071.6704       41.360757       170.44897       0
       8083.9301       13.471353       173.20927       0
       8096.1899       38.751583       169.73235       0
       8108.4496      -18.305265       169.00423       0
       8120.7094      -29.586325       171.09281       0
       8132.9691       86.991012       163.67543       0
       8145.2289       11.048948       153.78381       0
       8157.4886      -83.020308       155.85105       1
       8169.7484       86.019550       147.27696       1
       8182.0081       10.642345       153.17229       1
       8194.2679       134.24336       142.30987       1
       8206.5276       19.704812       146.73265       1
       8218.7873       4.0401132       130.67299       1
       8231.0471       10.572179       137.55813       1
       8243.3068       36.073474       124.57381       1
       8255.5666       31.707453       129.68443       1
       8267.8263      -10.044931       118.58593       1
       8280.0861      -10.346186       122.57655       1
       8292.3458      -27.038036       112.43192       1
       8304.6056       46.078691       118.00721       1
       8316.8653       50.155202       110.97988       1
       8329.1251       46.029731       112.86010       1
       8341.3848      -10.499639       104.77109       1
       8353.6446      -83.093040       108.46303       1
       8365.9043       2.2948216       102.04604       1
       8378.1640       44.967064       105.64535       1
       8390.4238       24.665268       103.46718       1
       8402.6835       59.117499       103.67038       1
       8414.9433       14.787904       97.240144       1
       8427.2030       66.606850       103.99255       1
       8439.4628      -27.018741       92.883049       1
       8451.7225      -62.818769       96.394742       1
       8463.9823       47.066592       92.537166       1
       8476.2420       51.027107       96.904114       1
       8488.5018       46.462045       90.463000       1
       8500.7615       75.364666       94.499767       1
       8513.0213       90.493979       89.296643       1
       8525.2810       83.695315       92.524838       1
       8537.5408       58.156698       86.290491       1
       8549.8005     -0.59705646       89.607396       1
       8562.0602       66.514408       84.645144       1
       8574.3200       39.900114       88.950016       1
       8586.5797       48.958362       90.429544       1
       8598.8395       27.185171       88.256778       1
       8611.0992       117.00436       86.611208       1
       8623.3590       51.053278       88.300238       1
       8635.6187       103.83795       84.047250       1
       8647.8785       47.948303       86.732104       1
       8660.1382       74.705454       82.933681       1
       8672.3980       46.587419       88.590948       1
       8684.6577       56.122626       81.114977       1
       8696.9175       38.412797       96.346073       1
       8709.1772       42.202770       77.626973       1
       8721.4370       23.366136       80.677528       1
       8733.6967       42.354543       74.754613       1
       8745.9564       27.250999       77.400358       1
       8758.2162       86.713138       73.237063       1
       8770.4759       42.913185       77.654927       1
       8782.7357       83.207611       70.979992       1
       8794.9954       61.854962       74.229176       1
       8807.2552       38.406949       75.136347       1
       8819.5149       9.9149122       72.847216       1
       8831.7747       47.528613       68.121587       1
       8844.0344       31.589151       71.381769       1
       8856.2942       42.040517       67.179380       1
       8868.5539       34.190083       71.002268       1
       8880.8137       64.689746       65.528560       1
       8893.0734       37.487212       68.260852       1
       8905.3332       89.073468       65.113201       1
       8917.5929       61.821057       67.253148       1
       8929.8526       66.699764       64.407732       1
       8942.1124       49.835384       66.633984       1
       8954.3721       72.915443       62.642834       1
       8966.6319       19.816962       64.155134       1
       8978.8916       24.732898       60.110832       1
       8991.1514       35.658613       64.837443       1
       9003.4111       46.252351       61.424051       1
       9015.6709       17.365244       61.832257       1
       9027.9306       42.702771       59.356154       1
       9040.1904       34.092584       61.613896       1
       9052.4501       72.430059       58.807844       1
       9064.7099       52.039933       61.758618       1
       9076.9696       74.455383       58.040594       1
       9089.2294       40.821363       60.802300       1
       9101.4891       58.236876       56.830532       1
       9113.7488       17.832937       59.404670       1
       9126.0086       44.326748       55.843983       1
       9138.2683       41.631913       58.271606       1
       9150.5281       61.722272       55.160913       1
       9162.7878       42.628756       57.286448       1
       9175.0476       83.232900       57.225430       1
       9187.3073       18.289690       56.434205       1
       9199.5671       75.781704       54.321355       1
       9211.8268       14.453143       56.500137       1
       9224.0866       62.055206       53.448764       1
       9236.3463       65.960974       55.670164       1
       9248.6061       69.588862       52.494481       1
       9260.8658       51.832325       58.697146       1
       9273.1256       27.629092       51.353131       1
       9285.3853       17.747199       53.897625       1
       9297.6450       61.837862       51.374142       1
       9309.9048       43.891614       53.628858       1
       9322.1645       53.868058       51.066589       1
       9334.4243       57.370467       53.100547       1
       9346.6840       48.614224       49.822801       1
       9358.9438       38.577589       52.126888       1
       9371.2035       69.191725       50.129680       1
       9383.4633      -11.083912       51.501606       1
       9395.7230       77.478888       49.536116       1
       9407.9828       57.200313       51.974287       1
       9420.2425       38.768090       48.693651       1
       9432.5023       19.888539       51.050943       1
       9444.7620       36.893643       47.648475       1
       9457.0218       37.704513       49.503310       1
       9469.2815       77.611203       47.042990       1
       9481.5412       44.870095       49.073522       1
       9493.8010       52.892441       46.488509       1
       9506.0607       42.913970       48.109193       1
       9518.3205       57.466772       45.722269       1
       9530.5802       40.073393       48.080849       1
       9542.8400       59.419113       49.473086       1
       9555.0997       10.114734       48.608140       1
       9567.3595       72.471345       46.402530       1
       9579.6192       83.991262       52.151484       1
       9591.8790       76.959133       44.583314       1
       9604.1387       2.5647594       46.570141       1
       9616.3985       77.434139       44.242734       1
       9628.6582       48.088321       46.386933       1
       9640.9180       65.005720       43.471681       1
       9653.1777       45.941089       46.052077       1
       9665.4374       73.893314       43.457498       1
       9677.6972       44.775996       45.160999       1
       9689.9569       59.683723       43.498462       1
       9702.2167       52.239679       44.799153       1
       9714.4764       61.861279       45.719220       1
       9726.7362       26.913953       44.635622       1
       9738.9959       45.048814       44.644519       1
       9751.2557       68.949748       44.494530       1
       9763.5154       55.402480       41.482466       1
       9775.7752       31.824316       43.236535       1
       9788.0349       62.828626       41.938773       1
       9800.2947       48.999460       43.349999       1
       9812.5544       48.180409       41.244254       1
       9824.8141       68.488373       46.472235       1
       9837.0739       60.320383       40.755284       1
       9849.3336       45.997094       42.949068       1
       9861.5934       82.395786       40.580060       1
       9873.8531       52.731549       42.696754       1
       9886.1129       62.231210       40.272683       1
       9898.3726       37.219310       42.045179       1
       9910.6324       52.531555       40.175840       1
       9922.8921       33.008775       42.240166       1
       9935.1519       73.900327       39.899027       1
       9947.4116       49.929212       42.924540       1
       9959.6714       49.285327       40.248095       1
       9971.9311       68.219132       42.755153       1
       9984.1909       55.396290       39.862575       1
       9996.4506       37.815059       42.118436       1
       10008.710       63.341061       39.644441       1
       10020.970       37.238336       40.715643       1
       10033.230       56.122356       38.725283       1
       10045.490       41.183379       40.743890       1
       10057.749       57.355167       41.703257       1
       10070.009       22.392212       40.092099       1
       10082.269       52.535738       39.256024       1
       10094.529       38.377561       39.903137       1
       10106.788       41.714820       38.053488       1
       10119.048       40.646252       39.793170       1
       10131.308       64.802991       37.628751       1
       10143.568       28.795218       39.525849       1
       10155.827       51.793214       37.110256       1
       10168.087       66.563919       43.071994       1
       10180.347       64.337213       36.913054       1
       10192.607       33.498767       37.760379       1
       10204.866       34.137808       35.397675       1
       10217.126       50.762187       37.562897       1
       10229.386       40.396396       35.288580       1
       10241.646       41.806071       37.148767       1
       10253.905       46.395626       35.188472       1
       10266.165       15.054584       36.423670       1
       10278.425       65.570551       34.929437       1
       10290.685       57.145647       36.644336       1
       10302.944       72.157296       35.030011       1
       10315.204       51.636226       36.966704       1
       10327.464       34.416085       33.617648       1
       10339.724       68.158774       39.457331       1
       10351.983       36.214268       36.804136       1
       10364.243       14.752806       36.390023       1
       10376.503       50.346524       37.782326       1
       10388.762       19.701536       35.290460       1
       10401.022       43.860154       34.566968       1
       10413.282       32.285055       35.016860       1
       10425.542       51.733801       34.107183       1
       10437.801       45.055597       38.039214       1
       10450.061       65.298806       36.499948       1
       10462.321       55.735109       35.503787       1
       10474.581       42.787032       33.853933       1
       10486.840       50.996556       35.412085       1
       10499.100       66.605677       33.965170       1
       10511.360       14.163399       37.307764       1
       10523.620       40.552914       34.308895       1
       10535.879       42.146379       36.334314       1
       10548.139       30.349010       37.785825       1
       10560.399       46.207023       36.143290       1
       10572.659       52.142535       33.810010       1
       10584.918       35.319458       35.127314       1
       10597.178       43.280910       33.564820       1
       10609.438       35.955432       35.228455       1
       10621.698       69.162367       33.434835       1
       10633.957       52.500748       38.321408       1
       10646.217       70.750497       33.222655       1
       10658.477       58.892736       39.348560       1
       10670.737       76.212151       32.885231       1
       10682.996       56.360196       33.641604       1
       10695.256       64.313359       32.061115       1
       10707.516       38.709980       37.631668       1
       10719.776       57.663928       31.537347       1
       10732.035       62.425269       35.555481       1
       10744.295       62.038464       32.348224       1
       10756.555       44.370873       32.959392       1
       10768.815       46.271438       30.990474       1
       10781.074       46.832418       32.533895       1
       10793.334       45.816788       30.862539       1
       10805.594       61.712617       32.639194       1
       10817.854       62.312743       30.741007       1
       10830.113       42.896598       32.335750       1
       10842.373       30.974550       30.463833       1
       10854.633       36.927875       33.802565       1
       10866.893       40.481569       30.375215       1
       10879.152       44.701981       32.047221       1
       10891.412       48.662186       30.263219       1
       10903.672       48.120142       32.942905       1
       10915.932       31.710348       30.127927       1
       10928.191       36.776101       31.907976       1
       10940.451       42.810610       29.602483       1
       10952.711       48.772205       31.166665       1
       10964.971       46.835776       29.467611       1
       10977.230       64.693546       31.188303       1
       10989.490       36.437490       32.693927       1
       11001.750       52.347019       31.138696       1
       11014.010       42.810404       29.885186       1
       11026.269       68.316891       31.344358       1
       11038.529       58.591519       29.209184       1
       11050.789       54.309761       32.015932       1
       11063.049       49.215183       29.139009       1
       11075.308       57.722401       30.752468       1
       11087.568       46.161026       29.453165       1
       11099.828       43.268530       30.762961       1
       11112.088       71.504324       32.132641       1
       11124.347       47.230865       30.720118       1
       11136.607       44.969413       31.262490       1
       11148.867       53.009311       30.587248       1
       11161.127       78.051328       29.291279       1
       11173.386       62.055215       30.818404       1
       11185.646       68.505254       30.122973       1
       11197.906       47.052710       31.339891       1
       11210.166       45.301165       29.727272       0
       11222.425       61.037544       31.681955       0
       11234.685       55.019419       30.094753       0
       11246.945       70.585698       31.603976       0
       11259.205       35.129937       29.852220       0
       11271.464       51.827534       33.716823       0
       11283.724       64.887421       29.876935       0
       11295.984       58.317134       31.368355       0
       11308.243       68.900191       30.052221       0
       11320.503       30.517368       31.220222       0
       11332.763       64.397500       29.961005       0
       11345.023       63.949934       31.568482       0
       11357.282       69.850100       29.891816       0
       11369.542       38.628349       31.210366       0
       11381.802       79.732368       30.465442       0
       11394.062       71.816439       32.249333       0
       11406.321       57.634622       31.024500       0
       11418.581       91.364050       33.899381       0
       11430.841       65.232686       33.333860       0
       11443.101       96.898638       37.388903       0
       11455.360       59.242030       38.244742       0
       11467.620       64.560807       43.816445       0
       11479.880       90.499572       45.789036       0
       11492.140       91.485933       54.880697       0
       11504.399       85.273357       57.643162       0
       11516.659       113.14375       69.268861       0
       11528.919       106.18284       74.571654       0
       11541.179       128.86504       88.252778       0
       11553.438       68.288247       92.795456       0
       11565.698       133.18371       108.42619       0
       11577.958       134.57566       113.94823       0
       11590.218       112.99171       131.99791       0
       11602.477       105.52326       140.31884       0
       11614.737       101.20566       169.44581       0
       11626.997       238.23511       188.46493       0
       11639.257       199.06532       237.05900       0
       11651.516       198.01358       271.13127       0
       11663.776       139.16155       349.05329       0
       11676.036       354.29547       419.78969       0
       11688.296       20.006616       548.12296       0
       11700.555      -19.455072       701.09484       0
       11712.815       192.77928       788.68054       0
       11725.075       559.14736       904.38060       0
       11737.335       1493.8512       1153.7864       0
       11749.594       819.48206       1363.1178       0
       11761.854       1886.7694       2005.1419       0
       11774.114       2558.6599       2283.1928       0
       11786.374       2048.1012       3437.6287       0
       11798.633       3939.1527       4163.3417       0
       11810.893       4196.4853       5138.1674       0
       11823.153       4547.4474       5654.9453       0
       11835.413       2207.7939       6202.1064       0
       11847.672       1757.3152       6003.2066       0
       11859.932       3598.3705       6196.7203       0
       11872.192       3183.1097       5654.9879       0
       11884.452       2863.3511       5951.6030       0
       11896.711       3814.8740       5936.8568       0
