#WAVELENGTH FLUX ERROR MASK
       10233.494       335.08169       2744.6953       0
       10256.886       978.09066       2403.0042       0
       10280.278       329.29663       2004.0794       0
       10303.670       339.77444       1666.9621       0
       10327.061       857.06273       1542.7767       0
       10350.453      -1091.4154       1419.5862       0
       10373.845      -795.35441       1262.0804       0
       10397.237      -470.35290       1083.3843       0
       10420.629       32.464183       997.74633       0
       10444.020      -100.59187       929.65395       0
       10467.412       440.84929       788.31470       0
       10490.804       112.75154       681.78329       0
       10514.196       70.162558       553.43019       0
       10537.588      -34.286047       486.77975       0
       10560.979       72.917176       406.92483       0
       10584.371      -24.527998       371.12381       0
       10607.763       63.736743       304.32760       0
       10631.155       196.83415       284.31798       0
       10654.547       77.061047       259.82593       0
       10677.939       140.01655       227.49559       0
       10701.330       141.30262       197.36842       0
       10724.722       173.59810       171.72379       0
       10748.114      -12.640281       136.59452       0
       10771.506       137.07945       113.39911       0
       10794.898       101.51783       95.904544       0
       10818.289       89.348498       85.268050       0
       10841.681       15.027059       70.658728       0
       10865.073       27.557311       66.061824       0
       10888.465       59.801025       57.995795       0
       10911.857       74.292218       52.740397       0
       10935.248       56.194820       50.001870       0
       10958.640       58.764698       48.677648       0
       10982.032       51.864097       41.314303       0
       11005.424       54.048291       42.690913       1
       11028.816       41.928461       37.865161       1
       11052.207       27.076072       34.459986       1
       11075.599       67.896219       33.593698       1
       11098.991       19.557600       33.050982       1
       11122.383       48.315388       30.579543       1
       11145.775       54.816321       30.824581       1
       11169.166       55.125303       29.097692       1
       11192.558       38.779859       27.511544       1
       11215.950       41.463629       28.146460       1
       11239.342       49.144800       28.819737       1
       11262.734       59.266351       27.674216       1
       11286.126       9.7903539       27.107570       1
       11309.517       55.371736       27.320114       1
       11332.909       32.500741       27.496106       1
       11356.301       61.829557       26.622391       1
       11379.693       49.366327       28.062417       1
       11403.085       37.807764       25.974773       1
       11426.476       46.711042       26.407932       1
       11449.868       39.097080       22.805328       1
       11473.260       46.410822       26.624317       1
       11496.652       55.363840       24.118131       1
       11520.044       48.990212       26.450482       1
       11543.435       49.238713       25.211781       1
       11566.827       26.621189       24.889271       1
       11590.219       41.096460       24.944060       1
       11613.611       32.330258       25.446254       1
       11637.003       43.865750       24.424812       1
       11660.394       57.399556       23.729243       1
       11683.786       58.535702       24.063689       1
       11707.178       41.961909       24.562219       1
       11730.570       47.225672       22.123289       1
       11753.962       44.930035       22.377790       1
       11777.353       47.449273       22.627408       1
       11800.745       38.401138       23.462010       1
       11824.137       39.094072       20.871418       1
       11847.529       47.621635       23.082335       1
       11870.921       47.520731       21.923007       1
       11894.313       21.944105       22.589786       1
       11917.704       41.815901       20.320376       1
       11941.096       55.662790       22.231273       1
       11964.488       50.983166       21.364115       1
       11987.880       9.5296848       22.031362       1
       12011.272       43.266382       21.075173       1
       12034.663       50.382512       21.987516       1
       12058.055       40.923276       20.843002       1
       12081.447       29.941885       21.180491       1
       12104.839       51.057829       20.512709       1
       12128.231       36.327060       20.851798       1
       12151.622       54.921328       20.377311       1
       12175.014       51.470677       20.776491       1
       12198.406       44.427745       20.015424       1
       12221.798       55.709181       20.704943       1
       12245.190       52.923928       19.807676       1
       12268.581       49.507740       20.845653       1
       12291.973       45.146587       18.545614       1
       12315.365       38.258947       20.279688       1
       12338.757       49.787488       19.395817       1
       12362.149       54.299545       19.468433       1
       12385.541       57.658850       19.351676       1
       12408.932       48.542483       19.854148       1
       12432.324       48.951549       19.031961       1
       12455.716       44.864624       19.412262       1
       12479.108       52.499003       18.904916       1
       12502.500       57.257199       19.468614       1
       12525.891       44.826871       17.808002       1
       12549.283       55.711073       19.589927       1
       12572.675       53.339903       18.655239       1
       12596.067       42.695638       19.147881       1
       12619.459       54.255469       18.579040       1
       12642.850       48.509657       19.048859       1
       12666.242       36.502037       18.311404       1
       12689.634       39.115358       19.125382       1
       12713.026       45.838313       18.179358       1
       12736.418       48.437626       18.682996       1
       12759.809       52.774392       18.154937       1
       12783.201       47.266595       18.584866       1
       12806.593       44.707672       18.089045       1
       12829.985       39.655401       16.103990       1
       12853.377       73.351522       18.347515       1
       12876.768       50.061562       18.285016       1
       12900.160       48.236393       17.617885       1
       12923.552       43.178696       17.783704       1
       12946.944       52.917288       17.541188       1
       12970.336       30.855344       17.541679       1
       12993.728       41.107020       17.461885       1
       13017.119       48.907966       17.275833       1
       13040.511       57.500837       17.129028       1
       13063.903       64.121519       17.760618       1
       13087.295       62.633124       17.085310       1
       13110.687       78.828686       17.242007       1
       13134.078       78.273488       17.029082       1
       13157.470       73.632641       17.210168       1
       13180.862       88.395038       16.987065       1
       13204.254       96.461330       16.474990       1
       13227.646       109.90957       16.975374       1
       13251.037       102.28118       17.122922       1
       13274.429       103.23133       16.767875       1
       13297.821       88.509844       16.929114       1
       13321.213       105.84943       16.795335       1
       13344.605       91.690603       17.015759       1
       13367.996       79.109783       15.660866       1
       13391.388       76.991910       16.619885       1
       13414.780       79.990370       16.285809       1
       13438.172       62.858837       16.424235       1
       13461.564       70.768722       16.045178       1
       13484.956       76.106475       16.336126       1
       13508.347       59.840330       15.769890       1
       13531.739       65.991153       16.063130       1
       13555.131       61.980260       15.722059       1
       13578.523       51.349707       16.037379       1
       13601.915       62.081547       15.741632       1
       13625.306       69.891149       16.306433       1
       13648.698       58.745687       15.714485       1
       13672.090       65.757610       15.917896       1
       13695.482       56.505735       15.694448       1
       13718.874       51.560982       15.946731       1
       13742.265       51.439888       15.656856       1
       13765.657       40.583216       15.069244       1
       13789.049       57.607263       15.705745       1
       13812.441       48.021559       16.056346       1
       13835.833       53.332503       15.666931       1
       13859.224       49.302669       15.710692       1
       13882.616       47.666366       15.548458       1
       13906.008       46.360887       15.865843       1
       13929.400       63.231457       15.676367       1
       13952.792       56.902413       15.777723       1
       13976.183       49.833015       15.459588       1
       13999.575       44.412801       15.646408       1
       14022.967       40.145728       15.128168       1
       14046.359       40.908374       15.342642       1
       14069.751       43.519666       15.042109       1
       14093.143       53.455710       15.327397       1
       14116.534       46.530595       14.965989       1
       14139.926       56.623529       15.279789       1
       14163.318       56.590585       15.019903       1
       14186.710       58.206575       15.382707       1
       14210.102       47.529206       14.861037       1
       14233.493       49.231815       15.078714       1
       14256.885       44.300012       14.744464       1
       14280.277       45.780256       15.006194       1
       14303.669       42.701131       14.577628       1
       14327.061       63.741217       15.110775       1
       14350.452       48.457036       14.559192       1
       14373.844       43.102753       14.656524       1
       14397.236       49.105221       14.526296       1
       14420.628       49.963862       14.683439       1
       14444.020       49.710562       14.548317       1
       14467.411       41.316356       14.781311       1
       14490.803       52.644837       14.574460       1
       14514.195       46.264156       14.445150       1
       14537.587       40.906161       14.918848       1
       14560.979       34.789116       14.804299       1
       14584.371       46.627656       14.482358       1
       14607.762       46.499529       14.571603       1
       14631.154       49.868955       14.480965       1
       14654.546       46.225734       14.532183       1
       14677.938       53.434654       14.561714       1
       14701.330       47.249630       14.558932       1
       14724.721       48.423893       14.493120       1
       14748.113       51.727433       14.855644       1
       14771.505       43.758782       14.480477       1
       14794.897       49.504286       14.570005       1
       14818.289       43.331810       14.417075       1
       14841.680       28.601918       14.588963       1
       14865.072       45.571895       14.347539       1
       14888.464       39.149007       14.584355       1
       14911.856       43.709242       14.181638       1
       14935.248       47.951764       14.294574       1
       14958.639       40.715871       14.065349       1
       14982.031       42.779138       14.158890       1
       15005.423       43.780713       13.888183       1
       15028.815       40.685569       3308933.2       1
       15052.207       47.270284       13.987751       1
       15075.598       34.872067       14.295005       1
       15098.990       33.228319       14.320961       1
       15122.382       47.884108       14.333232       1
       15145.774       33.266400       14.286879       1
       15169.166       34.644612       14.379496       1
       15192.558       43.954244       13.888417       1
       15215.949       35.441740       14.142200       1
       15239.341       41.254558       13.815788       1
       15262.733       27.579008       14.264764       1
       15286.125       36.702343       12.994915       1
       15309.517       33.199555       14.115687       1
       15332.908       37.573227       13.693343       1
       15356.300       42.396397       14.448516       1
       15379.692       34.667895       13.796662       1
       15403.084       33.849402       14.225085       1
       15426.476       48.129614       13.857856       1
       15449.867       42.329345       14.442382       1
       15473.259       48.038264       13.821591       1
       15496.651       48.431250       14.441606       1
       15520.043       33.683427       13.062938       1
       15543.435       30.050081       14.161075       1
       15566.826       40.834831       13.795728       1
       15590.218       49.606160       14.464751       1
       15613.610       42.688536       13.828395       1
       15637.002       41.099974       14.262365       1
       15660.394       39.302421       13.765594       1
       15683.785       30.182888       14.056756       1
       15707.177       40.236051       13.685099       1
       15730.569       45.994533       14.350402       1
       15753.961       35.919902       13.666645       1
       15777.353       32.494308       14.008535       1
       15800.745       42.911208       13.610155       1
       15824.136       36.270801       14.256617       1
       15847.528       47.116775       13.801418       1
       15870.920       42.746124       14.188438       1
       15894.312       38.828625       13.600783       1
       15917.704       26.074242       14.177666       1
       15941.095       41.537668       13.643248       1
       15964.487       31.010956       14.233048       1
       15987.879       38.171076       13.707154       1
       16011.271       34.274716       14.177442       1
       16034.663       42.203542       13.755281       1
       16058.054       30.631162       14.172837       1
       16081.446       38.791396       13.868063       1
       16104.838       33.436779       14.358712       1
       16128.230       29.347736       13.708774       1
       16151.622       43.828519       14.902728       1
       16175.013       43.195948       3316870.6       1
       16198.405       35.140027       14.523198       1
       16221.797       36.307165       13.966346       1
       16245.189       32.096255       14.630081       1
       16268.581       34.037270       14.045895       1
       16291.973       25.330900       13.759447       1
       16315.364       29.881387       14.073984       1
       16338.756       29.843632       14.622914       1
       16362.148       34.025321       14.192492       1
       16385.540       27.496005       14.660205       1
       16408.932       38.549610       14.212221       1
       16432.323       25.673885       13.669181       1
       16455.715       28.894306       14.257340       1
       16479.107       34.876483       15.081270       1
       16502.499       32.573529       14.606041       1
       16525.891       35.604362       15.556912       1
       16549.282       36.351698       15.482821       1
       16572.674       20.015671       16.554444       1
       16596.066       22.511154       4084573.4       1
       16619.458       22.387527       18.778886       1
       16642.850       26.058698       20.610021       1
       16666.241       12.648892       21.959216       1
       16689.633       40.925542       25.063295       1
       16713.025       36.011912       27.169465       1
       16736.417       43.850339       31.515885       1
       16759.809       32.131874       34.795105       0
       16783.200       13.777861       40.811776       0
       16806.592       38.183697       43.100510       0
       16829.984       37.393365       49.767912       0
       16853.376       60.951574       58.106335       0
       16876.768       47.636706       63.340269       0
       16900.160      -13.133965       73.226616       0
       16923.551       123.13822       81.575632       0
       16946.943       54.396208       92.188970       0
       16970.335       18.092048       98.662739       0
       16993.727       96.621045       116.01162       0
       17017.119       36.459226       117.14510       0
       17040.510       42.994576       143.92955       0
       17063.902       54.339259       144.20900       0
       17087.294      -73.993741       168.08195       0
       17110.686       15.953524       191.11113       0
       17134.078       10.733324       233.53417       0
       17157.469       83.483351       252.97307       0
       17180.861      -49.326965       307.64534       0
       17204.253      -64.573159       333.33180       0
       17227.645       115.10293       393.13388       0
       17251.037      -234.28670       407.32340       0
       17274.428      -203.12496       465.74592       0
       17297.820      -107.94472       535.33925       0
       17321.212      -463.17669       558.37887       0
       17344.604       221.73001       657.90532       0
       17367.996      -84.362290       702.95420       0
       17391.388      -166.66428       808.31664       0
       17414.779      -4.3029175       895.02327       0
       17438.171       485.47832       978.23237       0
       17461.563       432.84435       1129.6681       0
       17484.955       69.931207       1283.1531       0
       17508.347       261.15650       1515.6546       0
