#WAVELENGTH FLUX ERROR MASK
       7495.4623       3991.6790       32400.502       0
       7507.7220      -5971.9129       25615.964       0
       7519.9818      -7004.6566       22761.697       0
       7532.2415       21661.054       18754.652       0
       7544.5013       6493.7165       15978.175       0
       7556.7610      -5061.4779       11767.686       0
       7569.0208       707.05567       9910.3097       0
       7581.2805      -2869.9587       7645.0194       0
       7593.5403      -153.34071       6370.5171       0
       7605.8000       1819.2635       5730.8660       0
       7618.0598       2049.0185       5188.3018       0
       7630.3195       1520.6405       4252.7770       0
       7642.5793      -979.03277       3373.1087       0
       7654.8390      -623.19944       2739.7158       0
       7667.0987      -967.77985       2433.3982       0
       7679.3585      -568.75298       1909.3189       0
       7691.6182       1081.6043       1695.1089       0
       7703.8780      -774.76509       1339.0182       0
       7716.1377       33.060006       1233.7658       0
       7728.3975      -723.76651       1023.7356       0
       7740.6572      -998.93476       1030.2691       0
       7752.9170      -100.45573       843.41190       0
       7765.1767      -368.46092       913.09226       0
       7777.4365      -8.7306701       720.31210       0
       7789.6962      -108.65415       694.33009       0
       7801.9560      -201.26204       596.63874       0
       7814.2157       690.60008       573.83487       0
       7826.4755      -387.46976       480.36103       0
       7838.7352       481.22130       461.81753       0
       7850.9949       297.82563       398.93243       0
       7863.2547       32.418749       373.40705       0
       7875.5144      -210.53451       322.09094       0
       7887.7742      -81.304138       312.05357       0
       7900.0339      -7.0349866       277.67036       0
       7912.2937       115.40883       278.24144       0
       7924.5534      -59.264703       250.94739       0
       7936.8132       100.19940       250.70521       0
       7949.0729      -176.91431       224.43555       0
       7961.3327       258.09300       230.23087       0
       7973.5924      -73.748808       223.40114       0
       7985.8522       191.21881       211.40391       0
       7998.1119       13.291382       192.75841       0
       8010.3717       44.767851       202.34058       0
       8022.6314      -49.644049       180.94510       0
       8034.8911       104.59166       186.07984       0
       8047.1509      -44.877005       171.46642       0
       8059.4106       33.787294       193.86737       0
       8071.6704       40.225878       166.12928       0
       8083.9301      -44.347015       174.00719       0
       8096.1899       9.1961587       165.32347       0
       8108.4496       12.072628       167.53222       0
       8120.7094     -0.66668777       168.85009       0
       8132.9691       43.527858       159.58089       0
       8145.2289       68.405776       150.57919       0
       8157.4886       179.64618       158.32758       1
       8169.7484      -42.966515       146.93383       1
       8182.0081       60.495115       151.24491       1
       8194.2679       154.34319       140.20668       1
       8206.5276      -11.886619       144.28578       1
       8218.7873       64.381480       134.08641       1
       8231.0471       41.245887       142.35868       1
       8243.3068       35.617692       127.61712       1
       8255.5666       41.906123       131.36978       1
       8267.8263       87.567615       122.86727       1
       8280.0861       11.759781       124.17926       1
       8292.3458      -28.103878       114.52762       1
       8304.6056       102.38919       119.56669       1
       8316.8653       20.307863       110.40771       1
       8329.1251      -7.1837533       113.59192       1
       8341.3848       101.55837       108.01324       1
       8353.6446       7.3948684       120.35488       1
       8365.9043      -24.871032       104.25198       1
       8378.1640       49.761980       108.72849       1
       8390.4238       61.888046       101.99439       1
       8402.6835       42.100991       106.10553       1
       8414.9433       4.4812451       98.509115       1
       8427.2030       72.817857       103.09898       1
       8439.4628       51.737177       95.606554       1
       8451.7225       38.734641       99.561826       1
       8463.9823       28.153151       91.851088       1
       8476.2420      -29.471976       95.475062       1
       8488.5018       16.188655       90.196251       1
       8500.7615       56.898227       93.408591       1
       8513.0213       31.895716       87.987337       1
       8525.2810       27.846393       92.290618       1
       8537.5408       130.59853       86.179210       1
       8549.8005       87.113849       90.945056       1
       8562.0602       14.918063       84.376158       1
       8574.3200       107.79949       89.105844       1
       8586.5797       64.464497       84.755151       1
       8598.8395       56.001362       90.305911       1
       8611.0992       16.220724       84.707400       1
       8623.3590      -11.550563       87.959292       1
       8635.6187       25.230031       83.198068       1
       8647.8785       112.90959       88.147535       1
       8660.1382       96.543639       82.857234       1
       8672.3980       23.386385       90.812877       1
       8684.6577       53.257899       80.819633       1
       8696.9175       10.106620       82.333823       1
       8709.1772       20.719232       77.886161       1
       8721.4370       84.024007       80.775342       1
       8733.6967       14.842564       73.892345       1
       8745.9564       38.883018       77.215583       1
       8758.2162       43.986717       72.141553       1
       8770.4759       83.645683       75.947789       1
       8782.7357       21.726642       70.407512       1
       8794.9954       42.226235       72.682929       1
       8807.2552       22.975786       69.737782       1
       8819.5149       63.945825       72.763193       1
       8831.7747       26.850147       71.369980       1
       8844.0344       68.866214       70.564594       1
       8856.2942      -10.869019       75.743817       1
       8868.5539       63.589529       70.170253       1
       8880.8137       53.517794       68.314535       1
       8893.0734       79.238383       68.162670       1
       8905.3332      -13.947138       64.834242       1
       8917.5929       71.227640       70.248072       1
       8929.8526       41.301274       64.330077       1
       8942.1124       16.797442       66.691970       1
       8954.3721       63.844675       62.767066       1
       8966.6319       85.913758       67.277030       1
       8978.8916       34.192005       61.376759       1
       8991.1514       60.178347       63.679422       1
       9003.4111       11.513014       59.359920       1
       9015.6709       104.32602       63.287489       1
       9027.9306       54.912203       58.999280       1
       9040.1904       52.144039       61.807559       1
       9052.4501       22.163097       60.020261       1
       9064.7099       47.150023       61.631088       1
       9076.9696       3.2411794       64.191548       1
       9089.2294       75.271537       66.654206       1
       9101.4891       11.815856       57.444877       1
       9113.7488       51.735197       60.089410       1
       9126.0086       30.752336       56.308577       1
       9138.2683       49.178749       63.804980       1
       9150.5281       47.286784       55.140509       1
       9162.7878       47.323340       57.184222       1
       9175.0476       51.587516       54.238348       1
       9187.3073       62.351259       56.861250       1
       9199.5671       81.256553       54.004150       1
       9211.8268       99.874487       58.777069       1
       9224.0866       63.431135       54.262359       1
       9236.3463       76.042254       54.996832       1
       9248.6061       40.480228       52.754228       1
       9260.8658       73.802633       53.869101       1
       9273.1256       55.319627       50.802148       1
       9285.3853       98.258942       53.814628       1
       9297.6450       55.049714       51.090822       1
       9309.9048       42.165988       52.688359       1
       9322.1645       33.582805       50.136819       1
       9334.4243       88.587520       52.655183       1
       9346.6840       51.179812       49.451618       1
       9358.9438       92.228581       52.315353       1
       9371.2035       67.972293       49.390909       1
       9383.4633       81.702898       51.942669       1
       9395.7230       39.585076       48.672218       1
       9407.9828       115.39036       50.887162       1
       9420.2425       59.950103       48.295382       1
       9432.5023       71.681204       51.331865       1
       9444.7620       77.036841       48.176964       1
       9457.0218       54.793717       49.232643       1
       9469.2815       66.239839       47.185122       1
       9481.5412       54.076162       48.991085       1
       9493.8010       56.603026       47.065703       1
       9506.0607       90.499529       48.946150       1
       9518.3205       83.257098       46.227735       1
       9530.5802       104.70981       47.874722       1
       9542.8400       46.029127       45.495115       1
       9555.0997       76.305454       48.003837       1
       9567.3595       15.450235       44.646627       1
       9579.6192       28.146635       46.785772       1
       9591.8790       42.464715       45.363071       1
       9604.1387       104.70780       47.383026       1
       9616.3985       60.436951       44.358265       1
       9628.6582       78.691327       46.395919       1
       9640.9180       33.566915       43.504583       1
       9653.1777       134.46583       46.463914       1
       9665.4374       77.671321       43.590682       1
       9677.6972       69.467352       45.184655       1
       9689.9569       25.843234       42.479306       1
       9702.2167       50.682641       44.478283       1
       9714.4764       33.605556       42.160175       1
       9726.7362       62.157161       45.606019       1
       9738.9959       84.666955       42.329354       1
       9751.2557       80.602741       44.282532       1
       9763.5154       40.312498       41.808395       1
       9775.7752       38.947133       43.489647       1
       9788.0349       44.454550       41.306986       1
       9800.2947       105.36942       43.751700       1
       9812.5544       58.427939       46.196729       1
       9824.8141       82.368274       43.013381       1
       9837.0739       31.273967       40.482588       1
       9849.3336       103.42767       44.389827       1
       9861.5934       86.087185       40.877921       1
       9873.8531       70.118844       42.639124       1
       9886.1129       45.792299       40.084140       1
       9898.3726       77.026496       42.624099       1
       9910.6324       74.050600       40.266725       1
       9922.8921       69.984208       42.555746       1
       9935.1519       83.151839       40.722027       1
       9947.4116       84.333907       42.611829       1
       9959.6714       57.830166       40.068781       1
       9971.9311       89.306536       41.881885       1
       9984.1909       46.911559       39.057408       1
       9996.4506       95.259895       41.235974       1
       10008.710       64.325268       38.743999       1
       10020.970       80.031416       40.890864       1
       10033.230       59.687248       37.933141       1
       10045.490       76.728511       40.035424       1
       10057.749       103.37702       38.331688       1
       10070.009       92.215328       41.203960       1
       10082.269       66.395559       37.567700       1
       10094.529       89.559832       43.161275       1
       10106.788       55.104732       37.292032       1
       10119.048       94.476587       40.009332       1
       10131.308       81.023564       37.482264       1
       10143.568       85.328309       39.494977       1
       10155.827       83.038485       37.063677       1
       10168.087       72.672881       38.890860       1
       10180.347       70.685373       36.741553       1
       10192.607       112.34948       38.833425       1
       10204.866       48.713208       36.124365       1
       10217.126       72.442511       38.407346       1
       10229.386       58.509563       39.810708       1
       10241.646       70.517004       39.313053       1
       10253.905       52.427825       36.774059       1
       10266.165       62.937963       37.628823       1
       10278.425       47.423475       35.357488       1
       10290.685       110.91843       37.456260       1
       10302.944       38.479424       36.207945       1
       10315.204       85.083931       36.964302       1
       10327.464       41.016458       37.985159       1
       10339.724       100.20812       36.602464       1
       10351.983       72.279944       34.723543       1
       10364.243       83.447238       36.623384       1
       10376.503       47.010049       35.562970       1
       10388.762       90.284625       36.167464       1
       10401.022       49.719527       34.070778       1
       10413.282       80.716634       38.360024       1
       10425.542       84.734370       37.825852       1
       10437.801       59.652544       35.549625       1
       10450.061       39.567709       35.150866       1
       10462.321       62.460423       35.390268       1
       10474.581      0.88382137       33.307036       1
       10486.840       62.803317       34.938909       1
       10499.100       33.845860       33.199242       1
       10511.360       69.994294       35.028899       1
       10523.620       79.335448       33.317487       1
       10535.879       92.722099       35.333966       1
       10548.139       53.852182       33.690469       1
       10560.399       63.886935       35.189079       1
       10572.659       37.842475       33.597579       1
       10584.918       28.742243       36.686459       1
       10597.178       82.583522       33.562489       1
       10609.438       80.245432       35.495367       1
       10621.698       71.515095       37.675480       1
       10633.957       66.883393       34.789881       1
       10646.217       77.314256       37.383812       1
       10658.477       113.66574       34.713759       1
       10670.737       67.011923       32.592639       1
       10682.996       93.756683       34.326445       1
       10695.256       80.000142       32.129811       1
       10707.516       84.870812       33.179903       1
       10719.776       74.189716       31.840873       1
       10732.035       99.843587       33.750738       1
       10744.295       84.883128       31.587490       1
       10756.555       72.472614       32.764940       1
       10768.815       68.683617       31.045724       1
       10781.074       73.856126       34.401815       1
       10793.334       95.665611       31.349416       1
       10805.594       80.310785       32.853013       1
       10817.854       65.212066       30.662354       1
       10830.113       93.457519       33.110390       1
       10842.373       86.448707       30.713946       1
       10854.633       61.874085       31.815315       1
       10866.893       61.123392       35.040778       1
       10879.152       67.687999       32.075437       1
       10891.412       94.093849       30.688851       1
       10903.672       84.510544       32.112960       1
       10915.932       87.637543       30.371184       1
       10928.191       64.249994       31.845317       1
       10940.451       77.282037       30.254986       1
       10952.711       67.108256       31.845454       1
       10964.971       69.156679       30.005370       1
       10977.230       90.431414       31.979357       1
       10989.490       95.309795       33.306717       1
       11001.750       86.398710       31.660277       1
       11014.010       90.910537       30.110688       1
       11026.269       72.933696       31.681736       1
       11038.529       82.419649       29.850663       1
       11050.789       103.94477       32.946047       1
       11063.049       88.256499       29.925624       1
       11075.308       83.121282       31.707158       1
       11087.568       92.662951       29.949211       1
       11099.828       102.99726       31.514580       1
       11112.088       78.134129       29.845370       1
       11124.347       73.243657       31.342376       1
       11136.607       91.827365       30.029947       1
       11148.867       46.857323       30.772983       1
       11161.127       85.598978       29.791912       1
       11173.386       99.792456       32.568428       1
       11185.646       85.029920       29.513047       1
       11197.906       69.740305       31.948264       1
       11210.166       69.849554       29.314614       0
       11222.425       79.510792       31.341520       0
       11234.685       79.896972       29.390325       0
       11246.945       84.524557       31.533256       0
       11259.205       100.08113       29.725575       0
       11271.464       43.880989       31.072688       0
       11283.724       75.397705       29.579736       0
       11295.984       74.286380       31.208016       0
       11308.243       84.018108       30.869084       0
       11320.503       85.020712       31.410104       0
       11332.763       83.696102       29.468852       0
       11345.023       74.820202       32.435478       0
       11357.282       58.109158       32.389485       0
       11369.542       79.286543       32.250766       0
       11381.802       80.725199       32.924537       0
       11394.062       66.817188       31.764291       0
       11406.321       57.491396       30.638849       0
       11418.581       48.935360       33.073277       0
       11430.841       53.973015       33.351785       0
       11443.101       66.289320       37.207327       0
       11455.360       56.642532       43.689590       0
       11467.620       99.276335       44.130553       0
       11479.880       72.638480       45.809612       0
       11492.140       21.451532       53.310218       0
       11504.399       83.018564       58.462304       0
       11516.659       58.064983       68.849268       0
       11528.919       102.27259       74.874762       0
       11541.179       69.752321       87.941995       0
       11553.438       53.138342       92.664909       0
       11565.698       147.92155       108.98812       0
       11577.958       8.7893588       113.37182       0
       11590.218       40.348896       132.20358       0
       11602.477      -34.950015       140.13792       0
       11614.737      -17.928294       179.03234       0
       11626.997       7.4652612       186.59797       0
       11639.257      -96.911733       235.50864       0
       11651.516       64.521028       271.78377       0
       11663.776      -321.07684       350.16698       0
       11676.036       49.802507       416.54048       0
       11688.296      -128.77389       536.21114       0
       11700.555      -77.441657       621.20024       0
       11712.815      -349.48009       789.40143       0
       11725.075      -363.98267       898.44340       0
       11737.335       108.25030       1143.2353       0
       11749.594       93.399377       1364.5927       0
       11761.854      -27.129434       1887.3219       0
       11774.114      -3354.7395       2281.1500       0
       11786.374      -1130.4355       3128.0302       0
       11798.633      -438.28554       3858.5611       0
       11810.893       1942.4065       5213.3717       0
       11823.153      -1155.6223       5635.5161       0
       11835.413       2230.0611       6627.0401       0
       11847.672       6264.5897       6077.3727       0
       11859.932       1088.7173       6554.2968       0
       11872.192      -2273.2732       5690.9194       0
       11884.452       4221.7641       6803.0331       0
       11896.711      -2521.8383       5836.0620       0
