#WAVELENGTH FLUX ERROR MASK
       10233.494       450.04083       2730.1387       0
       10256.886       3712.8243       2541.2714       0
       10280.278      -24.488299       1952.8922       0
       10303.670       240.89953       1461.9183       0
       10327.061      -605.10902       1510.3433       0
       10350.453      -73.554084       1158.6501       0
       10373.845       668.74377       1266.9536       0
       10397.237       298.61021       1221.7479       0
       10420.629       55.237411       1027.9083       0
       10444.020       80.529338       970.47322       0
       10467.412      -185.77113       718.81106       0
       10490.804      -183.24200       616.65287       0
       10514.196       195.11683       562.96474       0
       10537.588      -116.84968       472.86519       0
       10560.979       376.93656       419.30798       0
       10584.371       339.72159       370.49807       0
       10607.763       293.94755       331.00883       0
       10631.155       207.43664       290.68727       0
       10654.547       162.11684       265.22363       0
       10677.939      -6.8474718       231.30024       0
       10701.330       180.05423       202.26298       0
       10724.722       213.62678       168.29296       0
       10748.114      -37.939451       140.43999       0
       10771.506       136.60164       117.00037       0
       10794.898       109.41006       97.836523       0
       10818.289       72.717417       74.226416       0
       10841.681       94.050863       73.087384       0
       10865.073       56.414099       59.562184       0
       10888.465       109.08950       59.302207       0
       10911.857       40.206750       55.169867       0
       10935.248       82.073296       47.545756       0
       10958.640       85.611126       47.391706       0
       10982.032       114.26552       44.896225       0
       11005.424       112.18408       41.542486       1
       11028.816       92.690721       38.925006       1
       11052.207       95.465619       36.315253       1
       11075.599       110.03020       34.744759       1
       11098.991       94.094637       32.575202       1
       11122.383       93.728930       31.739080       1
       11145.775       66.334516       30.426750       1
       11169.166       101.99032       30.174769       1
       11192.558       101.43488       29.221420       1
       11215.950       88.337916       29.081059       1
       11239.342       107.13679       28.904030       1
       11262.734       80.421118       30.047367       1
       11286.126       65.076491       25.487072       1
       11309.517       103.49320       28.015441       1
       11332.909       85.989435       25.908156       1
       11356.301       96.080596       27.290625       1
       11379.693       70.563409       26.895979       1
       11403.085       100.12771       26.966318       1
       11426.476       81.678652       26.262894       1
       11449.868       91.062493       26.870249       1
       11473.260       61.388847       25.971296       1
       11496.652       95.881144       26.368533       1
       11520.044       86.732677       26.117324       1
       11543.435       98.974372       26.315252       1
       11566.827       89.199016       26.283807       1
       11590.219       97.781455       26.124351       1
       11613.611       89.423064       25.123195       1
       11637.003       82.431712       25.196856       1
       11660.394       66.239345       22.934495       1
       11683.786       85.520149       24.803802       1
       11707.178       99.845977       24.249254       1
       11730.570       97.757785       24.310987       1
       11753.962       82.499355       23.671965       1
       11777.353       97.435816       23.797594       1
       11800.745       100.33865       23.216063       1
       11824.137       67.439376       21.017788       1
       11847.529       93.044807       22.791785       1
       11870.921       89.719300       22.827702       1
       11894.313       87.738928       22.675397       1
       11917.704       95.189392       22.600589       1
       11941.096       90.716325       22.079815       1
       11964.488       78.156920       22.134273       1
       11987.880       88.986629       21.824014       1
       12011.272       84.608394       21.943462       1
       12034.663       86.747105       21.453580       1
       12058.055       91.789736       21.632848       1
       12081.447       95.711561       21.522373       1
       12104.839       82.452786       21.253155       1
       12128.231       90.989177       21.220403       1
       12151.622       72.495254       20.890676       1
       12175.014       86.586768       20.592450       1
       12198.406       91.813712       20.933237       1
       12221.798       80.726469       20.609766       1
       12245.190       85.037859       20.546644       1
       12268.581       79.355143       20.303320       1
       12291.973       84.428868       20.320940       1
       12315.365       79.052916       19.982523       1
       12338.757       77.372839       20.053661       1
       12362.149       92.713134       19.934084       1
       12385.541       84.171255       19.948702       1
       12408.932       83.281222       19.545774       1
       12432.324       75.333104       19.599613       1
       12455.716       74.845604       19.293141       1
       12479.108       68.116119       17.892208       1
       12502.500       71.617823       19.406977       1
       12525.891       82.860190       19.454137       1
       12549.283       68.092105       19.230217       1
       12572.675       91.064114       19.421148       1
       12596.067       90.516802       19.090904       1
       12619.459       89.672453       19.274186       1
       12642.850       71.959404       19.035330       1
       12666.242       92.355809       19.248178       1
       12689.634       84.120328       18.837883       1
       12713.026       84.885981       18.946033       1
       12736.418       83.573001       19.405201       1
       12759.809       92.001407       18.247227       1
       12783.201       72.682097       19.296390       1
       12806.593       75.342566       17.832846       1
       12829.985       87.687764       19.060985       1
       12853.377       75.378526       17.755276       1
       12876.768       79.533331       19.016399       1
       12900.160       75.523876       17.568407       1
       12923.552       90.268763       18.860840       1
       12946.944       85.042203       17.629587       1
       12970.336       81.310987       18.727858       1
       12993.728       101.70394       17.535716       1
       13017.119       83.337804       18.544822       1
       13040.511       105.13030       17.323899       1
       13063.903       98.613993       18.266340       1
       13087.295       108.64559       17.234989       1
       13110.687       113.48518       18.313420       1
       13134.078       124.92596       17.266372       1
       13157.470       124.12957       18.030955       1
       13180.862       132.35269       17.159139       1
       13204.254       150.00047       18.162110       1
       13227.646       163.43606       17.315106       1
       13251.037       149.51059       17.910397       1
       13274.429       145.71386       16.975394       1
       13297.821       156.29383       18.907085       1
       13321.213       137.55642       16.855525       1
       13344.605       126.08602       18.323632       1
       13367.996       143.44901       16.869706       1
       13391.388       117.08809       17.856242       1
       13414.780       138.09313       16.689283       1
       13438.172       121.80662       17.246722       1
       13461.564       114.05438       16.241411       1
       13484.956       127.97043       17.470832       1
       13508.347       103.78144       15.990402       1
       13531.739       106.04284       17.173831       1
       13555.131       91.981386       16.006646       1
       13578.523       107.55081       17.332335       1
       13601.915       106.50165       15.989884       1
       13625.306       105.30550       16.918518       1
       13648.698       105.94852       15.965419       1
       13672.090       98.650161       16.635611       1
       13695.482       92.733685       15.805221       1
       13718.874       97.882892       16.910173       1
       13742.265       87.397016       15.838726       1
       13765.657       91.168078       16.806026       1
       13789.049       93.399856       15.855853       1
       13812.441       87.782675       16.626021       1
       13835.833       85.317250       15.766089       1
       13859.224       87.974030       16.952776       1
       13882.616       83.067187       15.709255       1
       13906.008       82.372916       16.413278       1
       13929.400       82.857456       15.592126       1
       13952.792       96.919496       16.668478       1
       13976.183       92.402184       15.566158       1
       13999.575       89.008576       16.450374       1
       14022.967       92.738245       15.450987       1
       14046.359       62.063336       15.093770       1
       14069.751       80.696429       15.167095       1
       14093.143       77.110923       15.816580       1
       14116.534       89.360034       15.188799       1
       14139.926       65.072726       15.651175       1
       14163.318       87.562853       15.100173       1
       14186.710       78.170977       15.704384       1
       14210.102       79.260904       14.911852       1
       14233.493       81.596489       15.674663       1
       14256.885       83.045399       14.913471       1
       14280.277       80.935974       14.877989       1
       14303.669       82.489784       14.768623       1
       14327.061       72.937915       15.677283       1
       14350.452       75.374005       14.628780       1
       14373.844       75.327685       4180882.4       1
       14397.236       84.590205       14.661463       1
       14420.628       70.846480       15.234929       1
       14444.020       80.421995       14.653241       1
       14467.411       72.524517       15.238161       1
       14490.803       72.775253       14.534349       1
       14514.195       85.698075       15.346079       1
       14537.587       73.203746       14.405006       1
       14560.979       72.836637       15.384137       1
       14584.371       79.678076       14.563942       1
       14607.762       61.136022       15.377563       1
       14631.154       82.956525       14.588108       1
       14654.546       76.474506       15.247477       1
       14677.938       72.172175       13.442611       1
       14701.330       63.562550       15.301808       1
       14724.721       79.486232       14.594843       1
       14748.113       71.484884       15.295862       1
       14771.505       79.340884       14.788790       1
       14794.897       88.977510       16.141988       1
       14818.289       82.228658       14.609621       1
       14841.680       64.596071       4155704.8       1
       14865.072       74.738679       14.465506       1
       14888.464       83.081824       15.154954       1
       14911.856       73.927166       14.246929       1
       14935.248       73.298911       14.940383       1
       14958.639       76.664112       14.239296       1
       14982.031       79.081501       15.100401       1
       15005.423       76.154062       14.139528       1
       15028.815       70.463909       14.436203       1
       15052.207       61.823029       13.186323       1
       15075.598       77.771593       14.324816       1
       15098.990       64.505701       14.819222       1
       15122.382       71.647116       14.545802       1
       15145.774       68.603038       14.841322       1
       15169.166       81.106351       14.677801       1
       15192.558       77.931850       14.426354       1
       15215.949       74.006711       14.125365       1
       15239.341       76.189192       14.686256       1
       15262.733       79.494766       14.134937       1
       15286.125       71.044745       14.281156       1
       15309.517       63.134571       14.095036       1
       15332.908       79.731423       14.456522       1
       15356.300       71.891654       14.160533       1
       15379.692       68.695422       14.291230       1
       15403.084       64.425210       14.285033       1
       15426.476       73.642420       14.411081       1
       15449.867       67.226410       14.146369       1
       15473.259       74.223636       14.362159       1
       15496.651       67.918217       4036650.0       1
       15520.043       76.515746       14.456969       1
       15543.435       73.937846       14.183338       1
       15566.826       55.265315       13.020116       1
       15590.218       56.305408       14.049429       1
       15613.610       68.121330       14.400510       1
       15637.002       71.543421       14.404627       1
       15660.394       80.502793       14.496709       1
       15683.785       84.148294       14.628458       1
       15707.177       65.591685       14.243788       1
       15730.569       75.087401       14.132729       1
       15753.961       70.733171       14.584301       1
       15777.353       67.946694       14.028035       1
       15800.745       67.918345       14.184343       1
       15824.136       66.624148       13.986075       1
       15847.528       61.883630       14.098373       1
       15870.920       63.861112       14.016451       1
       15894.312       62.100608       14.134577       1
       15917.704       63.557400       14.185549       1
       15941.095       69.753837       14.170617       1
       15964.487       54.253833       14.141358       1
       15987.879       75.687981       14.400126       1
       16011.271       71.980240       14.111304       1
       16034.663       61.523721       14.164492       1
       16058.054       65.991716       14.283602       1
       16081.446       55.964439       14.204018       1
       16104.838       63.285552       14.091421       1
       16128.230       64.522975       14.295430       1
       16151.622       70.621156       14.233293       1
       16175.013       74.538471       14.542127       1
       16198.405       63.806231       12.932095       1
       16221.797       65.076840       14.550997       1
       16245.189       68.111882       14.425782       1
       16268.581       72.112915       14.696963       1
       16291.973       57.480573       14.585214       1
       16315.364       72.690196       14.787047       1
       16338.756       59.970633       14.440996       1
       16362.148       77.219407       14.870129       1
       16385.540       69.075391       14.792289       1
       16408.932       61.557138       14.742050       1
       16432.323       55.866475       14.672886       1
       16455.715       62.144957       14.851383       1
       16479.107       72.674983       15.287896       1
       16502.499       50.559606       15.066269       1
       16525.891       69.927623       15.790078       1
       16549.282       57.708678       14.617929       1
       16572.674       52.295026       16.521995       1
       16596.066       64.066906       17.551642       1
       16619.458       68.208723       18.482305       1
       16642.850       56.399229       20.022523       1
       16666.241       49.433455       20.096054       1
       16689.633       65.077770       24.319927       1
       16713.025       78.345043       26.677494       1
       16736.417       92.078488       30.646998       1
       16759.809       35.865361       30.849614       0
       16783.200       77.076201       39.379797       0
       16806.592       67.218135       40.885126       0
       16829.984       86.945557       50.978709       0
       16853.376       67.693207       57.741118       0
       16876.768       67.063093       64.519246       0
       16900.160       60.753366       72.004615       0
       16923.551       95.305355       80.820255       0
       16946.943      -57.515773       89.034650       0
       16970.335       8.1096390       99.884986       0
       16993.727      -51.923287       114.45959       0
       17017.119       144.56141       126.63801       0
       17040.510      -18.099699       137.41052       0
       17063.902       103.55888       155.37839       0
       17087.294       15.767279       172.57801       0
       17110.686       116.92312       195.37692       0
       17134.078       137.26649       220.05364       0
       17157.469       122.61607       258.03919       0
       17180.861       140.33548       263.90546       0
       17204.253      -16.879963       340.37833       0
       17227.645       111.81211       342.92362       0
       17251.037       91.311517       437.05377       0
       17274.428       101.63486       482.73459       0
       17297.820      -18.024032       526.76071       0
       17321.212       155.96633       557.57571       0
       17344.604       31.666973       645.46760       0
       17367.996      -49.589453       704.32354       0
       17391.388      -375.91258       794.37910       0
       17414.779       200.10677       759.60091       0
       17438.171      -195.70882       964.03515       0
       17461.563      -364.84662       1070.1534       0
       17484.955       311.89463       1266.5820       0
       17508.347      -377.40009       1680.3575       0
