#WAVELENGTH FLUX ERROR MASK
       10217.983       1790.2513       4291.7512       0
       10240.900      -1113.2597       3583.0374       0
       10263.817       1375.3289       3195.9692       0
       10286.734      -800.94130       2662.9649       0
       10309.651       953.72082       2419.6615       0
       10332.568       14.780987       2094.7990       0
       10355.486      -494.28570       1941.4526       0
       10378.403       347.91982       1739.5971       0
       10401.320       68.443160       1625.2900       0
       10424.237       712.49431       1438.8697       0
       10447.154      -124.66485       1290.9063       0
       10470.071      -500.20522       1019.7592       0
       10492.988       34.146823       934.37813       0
       10515.905       126.73392       769.60856       0
       10538.822      -113.55089       672.76898       0
       10561.740       327.49086       574.68545       0
       10584.657       271.48598       517.39205       0
       10607.574       267.39513       453.15860       0
       10630.491      -537.84994       384.11281       0
       10653.408       349.26012       367.30062       0
       10676.325       124.83507       327.37061       0
       10699.242       312.15467       281.88417       0
       10722.159       76.256127       240.89638       0
       10745.077       134.59553       197.19050       0
       10767.994       51.870102       167.40812       0
       10790.911       118.69428       138.75333       0
       10813.828       69.603662       119.67827       0
       10836.745       108.78170       103.20677       0
       10859.662       110.41181       93.736322       0
       10882.579       68.877749       83.610718       0
       10905.496       69.967749       78.407718       0
       10928.413      -20.552480       71.020651       0
       10951.331       80.143858       68.630039       0
       10974.248       35.887788       62.344548       0
       10997.165       96.197462       60.077673       0
       11020.082       52.509820       54.566133       1
       11042.999       65.053550       53.261409       1
       11065.916       40.561685       47.982682       1
       11088.833       45.970264       46.838134       1
       11111.750       52.454989       43.658627       1
       11134.668       53.043372       42.787261       1
       11157.585       50.715352       41.388554       1
       11180.502       39.083885       40.834100       1
       11203.419       75.368669       39.858166       1
       11226.336       27.587155       39.691965       1
       11249.253       57.898796       38.746839       1
       11272.170       37.261510       36.692768       1
       11295.087       65.911585       38.180632       1
       11318.004       44.896721       38.394486       1
       11340.922       42.215043       37.202503       1
       11363.839       44.089459       37.791396       1
       11386.756       68.733780       36.690472       1
       11409.673       39.897365       36.721877       1
       11432.590       30.228845       33.858197       1
       11455.507       46.312232       36.323692       1
       11478.424       61.908064       35.404329       1
       11501.341       66.652419       36.136383       1
       11524.259       44.801739       35.162159       1
       11547.176       45.943026       35.779913       1
       11570.093       76.424724       35.103331       1
       11593.010      -95.735294       29.852888       1
       11615.927       35.275045       34.349932       1
       11638.844       40.358285       34.570728       1
       11661.761       51.129117       33.841675       1
       11684.678       45.645541       34.122791       1
       11707.595       62.032249       33.190270       1
       11730.513       35.770390       33.233257       1
       11753.430       62.294340       32.481509       1
       11776.347       39.253389       33.080087       1
       11799.264       61.661584       32.088988       1
       11822.181       47.152910       32.422679       1
       11845.098       32.080081       31.307877       1
       11868.015       31.120976       31.876279       1
       11890.932       51.059944       30.927821       1
       11913.850       45.979547       31.504220       1
       11936.767       67.385584       30.652708       1
       11959.684       41.193324       30.974766       1
       11982.601       44.032241       30.145038       1
       12005.518       52.739953       30.508145       1
       12028.435       56.210796       29.815494       1
       12051.352       44.348649       30.202989       1
       12074.269       54.281612       29.402587       1
       12097.186       43.205176       29.826428       1
       12120.104       54.450265       29.093844       1
       12143.021       28.188300       29.431412       1
       12165.938       44.138035       28.663214       1
       12188.855       15.404863       27.124689       1
       12211.772       90.544422       28.481384       1
       12234.689       42.760400       28.758316       1
       12257.606      -17.070621       25.727823       1
       12280.523       52.658101       28.479542       1
       12303.441       47.963923       27.626998       1
       12326.358       36.385876       28.101671       1
       12349.275       40.981696       27.290754       1
       12372.192       59.187675       28.156400       1
       12395.109       28.424658       26.945356       1
       12418.026       34.444552       27.406080       1
       12440.943       47.061362       26.869765       1
       12463.860       51.953322       26.634131       1
       12486.777       50.896881       26.379451       1
       12509.695       52.232647       26.553127       1
       12532.612       44.907323       26.158792       1
       12555.529       63.020718       26.452437       1
       12578.446       51.145302       25.964885       1
       12601.363       47.948631       26.204050       1
       12624.280       42.863285       25.762487       1
       12647.197       43.218478       26.002424       1
       12670.114       22.165361       23.908399       1
       12693.032       60.162019       25.941807       1
       12715.949       57.699901       25.595152       1
       12738.866       42.551544       25.432181       1
       12761.783       41.255712       24.867524       1
       12784.700       55.154037       25.142280       1
       12807.617       34.853862       24.521790       1
       12830.534       44.121450       24.809956       1
       12853.451       80.059786       24.940078       1
       12876.368       50.699426       24.604617       1
       12899.286       49.043756       24.592778       1
       12922.203       38.624308       24.380956       1
       12945.120       52.723822       23.949473       1
       12968.037       44.191446       24.118325       1
       12990.954       44.010817       23.670141       1
       13013.871       40.308679       23.798467       1
       13036.788       49.809351       23.398222       1
       13059.705       46.114824       23.625175       1
       13082.623       59.431928       23.321371       1
       13105.540       42.851575       23.412347       1
       13128.457       74.295652       23.424695       1
       13151.374       60.190843       23.864982       1
       13174.291       56.850324       23.128229       1
       13197.208       72.186874       23.491067       1
       13220.125       61.942774       22.983950       1
       13243.042       67.540272       23.438094       1
       13265.959       86.731352       22.975543       1
       13288.877       87.934644       23.546884       1
       13311.794       86.058431       23.182499       1
       13334.711       79.458343       23.294794       1
       13357.628       82.685127       23.129036       1
       13380.545       64.502457       23.070708       1
       13403.462       74.447983       22.745787       1
       13426.379       66.687113       22.810942       1
       13449.296       76.331882       22.418147       1
       13472.214       68.724775       22.723589       1
       13495.131       74.970581       22.114523       1
       13518.048       75.854840       22.670173       1
       13540.965       78.833382       21.939269       1
       13563.882       61.553713       22.296284       1
       13586.799       61.263313       3824197.1       1
       13609.716       56.177313       22.254461       1
       13632.633       53.341047       21.781155       1
       13655.550       65.096230       22.299268       1
       13678.468       59.909120       21.820303       1
       13701.385       56.847365       22.264334       1
       13724.302       39.284199       21.593282       1
       13747.219       65.862043       22.293726       1
       13770.136       43.451806       21.718558       1
       13793.053       39.475727       21.204854       1
       13815.970       46.102177       21.722678       1
       13838.887       36.202445       22.108780       1
       13861.805       61.738464       21.791074       1
       13884.722       55.517109       22.167493       1
       13907.639       55.626069       21.690216       1
       13930.556       47.751942       22.019162       1
       13953.473       43.195709       21.345249       1
       13976.390       42.682806       21.994734       1
       13999.307       58.282177       21.249229       1
       14022.224       43.511306       21.514759       1
       14045.141       35.409720       20.946678       1
       14068.059       43.618807       21.151144       1
       14090.976       36.871895       20.747727       1
       14113.893       53.840389       21.123919       1
       14136.810       34.286728       19.595528       1
       14159.727       41.256968       20.974646       1
       14182.644       44.340553       20.616525       1
       14205.561       39.795075       20.991139       1
       14228.478       42.685687       20.585743       1
       14251.396       60.623014       20.987762       1
       14274.313       38.443009       20.368706       1
       14297.230      -10.392459       19.414178       1
       14320.147       56.800154       20.329609       1
       14343.064       45.715715       20.587542       1
       14365.981      -34.205164       18.473397       1
       14388.898       42.507099       20.489734       1
       14411.815       56.867153       20.166736       1
       14434.732       40.712004       20.472130       1
       14457.650       57.194682       20.251177       1
       14480.567       34.138851       20.415856       1
       14503.484       44.156826       20.191293       1
       14526.401       20.855275       20.262381       1
       14549.318       37.665724       20.061249       1
       14572.235       30.996894       20.303513       1
       14595.152       46.424171       20.063390       1
       14618.069       41.164726       20.351668       1
       14640.987       43.858390       20.053877       1
       14663.904       31.785967       20.279306       1
       14686.821       49.696966       20.079218       1
       14709.738       57.977029       20.561701       1
       14732.655       45.892532       20.045474       1
       14755.572       40.778248       20.372802       1
       14778.489       57.859640       20.271792       1
       14801.406       39.753030       20.250884       1
       14824.323       43.614606       19.957413       1
       14847.241       39.878154       20.299639       1
       14870.158       40.240374       19.834902       1
       14893.075       43.521526       19.990752       1
       14915.992       42.721108       19.640205       1
       14938.909       38.848967       19.770972       1
       14961.826       56.754272       19.537258       1
       14984.743       31.871700       19.551401       1
       15007.660       59.333683       19.358061       1
       15030.578       62.799680       19.623905       1
       15053.495       49.393250       19.125205       1
       15076.412       54.642740       19.309357       1
       15099.329       56.222342       18.945192       1
       15122.246       70.054184       19.367204       1
       15145.163       57.284613       18.558044       1
       15168.080       51.563912       19.002964       1
       15190.997       52.164783       18.327585       1
       15213.914       50.000082       3639123.8       1
       15236.832       37.840526       17.997010       1
       15259.749       45.660712       18.556958       1
       15282.666       41.056871       17.835864       1
       15305.583       38.913650       18.216632       1
       15328.500       43.176720       17.740064       1
       15351.417       50.628416       18.328078       1
       15374.334       41.154824       17.669973       1
       15397.251       49.296320       18.301780       1
       15420.168       28.453974       3645754.4       1
       15443.086       35.462539       18.135385       1
       15466.003       35.349699       17.512101       1
       15488.920       47.896807       18.093073       1
       15511.837       28.840345       17.398729       1
       15534.754       37.159406       18.052726       1
       15557.671       44.600343       17.443986       1
       15580.588       39.811444       18.008085       1
       15603.505       48.010882       17.466742       1
       15626.423       44.629674       17.979995       1
       15649.340       42.468227       17.409289       1
       15672.257       52.526870       17.976361       1
       15695.174       43.062753       17.249501       1
       15718.091       41.664644       17.632334       1
       15741.008       35.074043       17.065727       1
       15763.925       45.524448       17.592847       1
       15786.842       42.129530       17.077076       1
       15809.759       55.738586       17.562253       1
       15832.677       43.741313       17.064618       1
       15855.594       48.355374       17.428504       1
       15878.511       44.242890       16.949578       1
       15901.428       34.077810       16.122455       1
       15924.345       37.685553       16.971619       1
       15947.262       26.813298       16.105084       1
       15970.179       43.303444       17.038130       1
       15993.096       51.862189       17.587374       1
       16016.014       46.096219       17.027061       1
       16038.931       44.544599       17.407327       1
       16061.848       37.345190       16.973880       1
       16084.765       48.518506       17.500402       1
       16107.682       55.025804       17.023317       1
       16130.599       43.269419       17.424635       1
       16153.516       36.664962       16.974529       1
       16176.433       43.222616       17.600937       1
       16199.350       54.219482       17.201545       1
       16222.268       45.647736       17.663108       1
       16245.185       31.823925       17.285560       1
       16268.102       52.532830       17.842768       1
       16291.019       37.709162       17.403090       1
       16313.936       42.951947       17.829519       1
       16336.853       34.024024       17.480079       1
       16359.770       45.478688       17.825258       1
       16382.687       40.906333       16.372462       1
       16405.605       42.880995       18.032172       1
       16428.522       46.075827       17.632462       1
       16451.439       53.444963       18.148244       1
       16474.356       41.143748       17.650853       1
       16497.273       47.602252       18.321053       1
       16520.190       44.198476       18.150986       1
       16543.107       32.522649       17.733458       1
       16566.024       45.616649       19.199999       1
       16588.941       31.965356       20.280772       1
       16611.859       41.440033       20.968146       1
       16634.776       43.554162       22.724786       1
       16657.693       43.380797       24.081007       1
       16680.610       39.934511       26.362314       1
       16703.527       42.037987       26.949427       1
       16726.444       24.099204       29.855317       1
       16749.361       31.565810       35.132616       1
       16772.278       39.051695       41.023689       0
       16795.196       15.451521       40.258153       0
       16818.113       88.745564       53.799842       0
       16841.030       64.772532       60.013783       0
       16863.947       94.796739       65.582265       0
       16886.864       62.739137       76.504673       0
       16909.781       84.963053       86.312885       0
       16932.698       36.759999       95.202547       0
       16955.615       55.788167       108.03412       0
       16978.532       3.9648467       118.23814       0
       17001.450       96.691563       135.26204       0
       17024.367       49.721842       148.40803       0
       17047.284       13.114148       165.57639       0
       17070.201       10.751323       167.56700       0
       17093.118       116.85949       205.24770       0
       17116.035      -45.057037       223.16921       0
       17138.952      -92.561693       258.36430       0
       17161.869       35.588041       291.92146       0
       17184.787      -10.525889       320.31905       0
       17207.704      -90.800609       383.15772       0
       17230.621       8.3981407       420.00523       0
       17253.538      -119.15398       472.37854       0
       17276.455       221.93772       570.64018       0
       17299.372       150.37814       623.15439       0
       17322.289      -194.84578       638.13926       0
       17345.206      -114.29702       745.70078       0
