#WAVELENGTH FLUX ERROR MASK
       7524.7721       2177.7945       16464.938       0
       7537.1152      -2535.9435       17115.572       0
       7549.4584      -2097.7175       11987.341       0
       7561.8016      -3011.1724       10714.582       0
       7574.1447       1310.2600       7802.8428       0
       7586.4879       1715.3339       6483.2839       0
       7598.8310       394.80971       4752.0037       0
       7611.1742      -593.87243       4453.7584       0
       7623.5174      -1159.7207       3240.6760       0
       7635.8605       127.07090       3256.8030       0
       7648.2037      -1627.7006       2646.9704       0
       7660.5468      -412.30726       2372.4722       0
       7672.8900      -76.581756       1845.0880       0
       7685.2332       137.41139       1762.5782       0
       7697.5763       482.76493       1262.4708       0
       7709.9195       883.19424       1179.7560       0
       7722.2627      -203.85123       942.79399       0
       7734.6058       133.45579       983.98852       0
       7746.9490       346.08507       740.94013       0
       7759.2921       326.50264       754.77712       0
       7771.6353       123.26443       621.92989       0
       7783.9785      -40.917742       643.73635       0
       7796.3216      -471.43955       522.26503       0
       7808.6648       180.36283       570.65871       0
       7821.0079      -189.20451       404.04057       0
       7833.3511       422.95674       457.70096       0
       7845.6943       74.451962       369.93214       0
       7858.0374      -35.106204       339.41226       0
       7870.3806       84.792770       278.22489       0
       7882.7237       130.11783       313.99607       0
       7895.0669       19.966980       228.48456       0
       7907.4101       180.09992       253.10783       0
       7919.7532      -9.9106063       209.40285       0
       7932.0964       172.16832       270.78395       0
       7944.4395       39.988378       187.39745       0
       7956.7827       143.79293       206.14221       0
       7969.1259       128.73324       177.08483       0
       7981.4690       11.448649       188.50266       0
       7993.8122       4.5574553       155.28605       0
       8006.1554      -17.084586       176.48869       0
       8018.4985       152.29877       151.90372       0
       8030.8417      -49.058308       165.65936       0
       8043.1848       167.32829       139.43038       0
       8055.5280       72.396074       159.36626       0
       8067.8712       95.149925       134.62939       0
       8080.2143       140.47686       154.33140       0
       8092.5575       62.572069       128.55944       0
       8104.9006       72.293002       148.29770       0
       8117.2438      -43.812680       134.12215       0
       8129.5870       121.91398       164.05209       0
       8141.9301       65.968397       120.76139       0
       8154.2733      -9.6389504       138.89195       1
       8166.6164      -14.406953       125.85709       1
       8178.9596       106.92017       143.81423       1
       8191.3028       38.520946       112.11545       1
       8203.6459       45.642710       129.53432       1
       8215.9891       29.111078       112.27006       1
       8228.3322       107.67085       122.60154       1
       8240.6754       134.37407       108.71255       1
       8253.0186       84.284665       115.90536       1
       8265.3617       6.0758633       99.770786       1
       8277.7049       68.160846       110.13065       1
       8290.0480       93.741601       97.889902       1
       8302.3912       52.898446       105.87535       1
       8314.7344       63.829859       91.928383       1
       8327.0775      -7.4511149       101.56345       1
       8339.4207       47.371174       88.242894       1
       8351.7639       85.010185       98.407291       1
       8364.1070       47.770124       86.524371       1
       8376.4502       120.82403       95.782519       1
       8388.7933       148.19223       82.284202       1
       8401.1365       109.91395       94.311378       1
       8413.4797       94.757760       82.778871       1
       8425.8228       102.51643       106.06162       1
       8438.1660       110.62879       77.449278       1
       8450.5091       57.166738       86.216755       1
       8462.8523       104.74017       75.621872       1
       8475.1955       144.94960       83.182831       1
       8487.5386       75.967075       72.874080       1
       8499.8818       15.446489       81.313643       1
       8512.2249       65.000317       71.376024       1
       8524.5681       141.43697       79.649853       1
       8536.9113       52.486829       69.564026       1
       8549.2544       106.50319       78.288600       1
       8561.5976       98.824397       68.967614       1
       8573.9407       86.565427       77.246412       1
       8586.2839       143.68474       68.634227       1
       8598.6271       71.138772       77.838314       1
       8610.9702       128.73949       68.213168       1
       8623.3134       188.13944       76.780538       1
       8635.6566       65.359455       67.464480       1
       8647.9997       72.296836       75.868306       1
       8660.3429       159.93182       66.952060       1
       8672.6860       156.61314       80.214513       1
       8685.0292       73.246286       65.102981       1
       8697.3724       83.014011       77.732537       1
       8709.7155       95.169277       62.696894       1
       8722.0587       123.11121       69.248291       1
       8734.4018       183.34359       62.582737       1
       8746.7450       99.033487       66.940601       1
       8759.0882       93.138935       58.477168       1
       8771.4313       72.633941       65.061265       1
       8783.7745       132.86624       57.184791       1
       8796.1176       99.017654       65.604893       1
       8808.4608       102.79149       55.905065       1
       8820.8040       113.83878       62.891168       1
       8833.1471       78.238618       54.656736       1
       8845.4903       123.20690       61.706474       1
       8857.8334       58.737132       55.855498       1
       8870.1766       92.522564       60.734291       1
       8882.5198       80.269061       52.414712       1
       8894.8629       137.60229       60.309329       1
       8907.2061       86.317930       52.033718       1
       8919.5493       115.47317       58.599052       1
       8931.8924       104.02117       50.901034       1
       8944.2356       81.506610       65.124742       1
       8956.5787       89.305112       50.406330       1
       8968.9219       134.92802       56.838507       1
       8981.2651       108.11804       52.966661       1
       8993.6082       89.477607       55.205229       1
       9005.9514       74.003445       48.581155       1
       9018.2945       130.52630       54.410286       1
       9030.6377       125.52179       48.459386       1
       9042.9809       91.469051       54.429812       1
       9055.3240       94.920528       48.024218       1
       9067.6672       80.709558       54.358957       1
       9080.0103       37.623969       49.734621       1
       9092.3535       88.038848       53.026696       1
       9104.6967       80.502927       46.294752       1
       9117.0398       108.66543       51.769316       1
       9129.3830       117.84910       45.473402       1
       9141.7261       116.80660       50.883091       1
       9154.0693       86.399643       44.308658       1
       9166.4125       56.601295       49.930520       1
       9178.7556       78.374269       43.988580       1
       9191.0988       113.05647       48.665849       1
       9203.4419       97.156762       42.707445       1
       9215.7851       107.25001       48.348655       1
       9228.1283       108.78120       44.058447       1
       9240.4714       90.894919       47.185812       1
       9252.8146       91.320301       41.500098       1
       9265.1578       135.29568       46.794098       1
       9277.5009       96.204830       41.236467       1
       9289.8441       93.711426       46.357227       1
       9302.1872       125.24907       40.798835       1
       9314.5304       107.24701       46.740911       1
       9326.8736       96.818717       40.121892       1
       9339.2167       113.93160       46.699393       1
       9351.5599       108.99127       39.730121       1
       9363.9030       120.49802       46.011588       1
       9376.2462       76.557303       39.268069       1
       9388.5894       79.793379       45.545389       1
       9400.9325       81.759576       38.846207       1
       9413.2757       91.517087       44.763886       1
       9425.6188       83.551614       43.293779       1
       9437.9620       141.87802       44.279080       1
       9450.3052       119.73789       38.115848       1
       9462.6483       122.87878       48.064546       1
       9474.9915       98.358514       37.123223       1
       9487.3346       121.36321       43.233751       1
       9499.6778       105.17968       38.888668       1
       9512.0210       108.87825       42.830888       1
       9524.3641       100.07307       36.649933       1
       9536.7073       120.93246       42.399494       1
       9549.0505       69.184289       36.240559       1
       9561.3936       100.31017       42.036400       1
       9573.7368       125.13579       36.037985       1
       9586.0799       96.990926       45.206356       1
       9598.4231       93.642731       35.454495       1
       9610.7663       93.316104       41.196696       1
       9623.1094       96.687146       35.409384       1
       9635.4526       121.14465       41.343151       1
       9647.7957       111.47592       35.950429       1
       9660.1389       110.30041       40.620942       1
       9672.4821       102.37743       34.635475       1
       9684.8252       80.960746       40.031169       1
       9697.1684       110.61646       36.417682       1
       9709.5115       112.24352       39.889152       1
       9721.8547       129.19869       34.917007       1
       9734.1979       89.402807       39.188537       1
       9746.5410       98.798040       35.003182       1
       9758.8842       98.573341       39.292170       1
       9771.2273       110.14938       34.593097       1
       9783.5705       90.140204       38.594308       1
       9795.9137       117.47935       33.325481       1
       9808.2568       102.21676       38.451979       1
       9820.6000       120.11667       33.015912       1
       9832.9431       102.32704       38.330834       1
       9845.2863       107.94317       33.129541       1
       9857.6295       99.606156       38.134013       1
       9869.9726       121.46827       32.935162       1
       9882.3158       119.95456       40.812519       1
       9894.6590       111.28852       32.760228       1
       9907.0021       122.83739       38.181960       1
       9919.3453       122.90316       32.505840       1
       9931.6884       98.101570       41.359381       1
       9944.0316       86.577199       32.292088       1
       9956.3748       123.33445       37.585903       1
       9968.7179       97.298443       33.335797       1
       9981.0611       115.34410       36.811815       1
       9993.4042       121.77404       31.770149       1
       10005.747       108.63767       36.647855       1
       10018.091       91.639726       31.161077       1
       10030.434       80.709074       35.796673       1
       10042.777       121.24473       31.087125       1
       10055.120       113.82828       36.055983       1
       10067.463       110.19154       30.844386       1
       10079.806       141.43345       36.253892       1
       10092.150       138.82161       30.868636       1
       10104.493       107.72251       36.201866       1
       10116.836       94.921165       30.534519       1
       10129.179       82.005585       35.875960       1
       10141.522       102.88491       30.411055       1
       10153.865       94.138798       38.441094       1
       10166.208       108.59623       30.133186       1
       10178.552       103.89870       34.312584       1
       10190.895       68.955323       32.002568       1
       10203.238       101.90398       34.087993       1
       10215.581       69.051165       30.120765       1
       10227.924       70.849408       33.418806       1
       10240.267       93.808095       31.521320       1
       10252.611       88.589194       35.952494       1
       10264.954       89.675495       29.387181       1
       10277.297       96.907652       33.107980       1
       10289.640       93.622001       28.987245       1
       10301.983       108.15200       32.925668       1
       10314.326       97.279817       28.846410       1
       10326.670       77.188721       33.218132       1
       10339.013       103.96716       28.592713       1
       10351.356       81.170371       32.538275       1
       10363.699       83.251060       28.770033       1
       10376.042       99.460679       32.223063       1
       10388.385       93.183891       28.641604       1
       10400.729       103.64402       37.806388       1
       10413.072       101.28237       28.364154       1
       10425.415       90.981893       31.981887       1
       10437.758       60.650833       31.651289       1
       10450.101       81.598709       31.975853       1
       10462.444       89.785963       28.160838       1
       10474.788       73.681007       31.635482       1
       10487.131       92.814518       29.321607       1
       10499.474       108.65200       31.881980       1
       10511.817       72.265012       28.039747       1
       10524.160       80.200983       32.157536       1
       10536.503       87.393605       29.072796       1
       10548.846       97.117864       32.114866       1
       10561.190       103.14189       28.249399       1
       10573.533       87.153512       31.853661       1
       10585.876       91.354886       28.096502       1
       10598.219       92.068196       31.707859       1
       10610.562       86.808080       27.763264       1
       10622.905       113.19871       31.194103       1
       10635.249       85.755558       27.388160       1
       10647.592       83.202272       33.015291       1
       10659.935       85.603778       27.392995       1
       10672.278       100.25622       30.812353       1
       10684.621       115.43145       28.243926       1
       10696.964       46.937446       33.580902       1
       10709.308       82.063880       27.081018       1
       10721.651       116.08333       30.792053       1
       10733.994       111.84767       28.164134       1
       10746.337       98.079955       30.529261       1
       10758.680       111.39756       27.780127       1
       10771.023       107.36591       33.513090       1
       10783.367       85.219258       26.821516       1
       10795.710       109.72621       32.436134       1
       10808.053       80.736773       26.832529       1
       10820.396       99.049668       32.500805       1
       10832.739       79.105184       26.853494       1
       10845.082       90.349463       29.975010       1
       10857.425       109.09429       26.364878       1
       10869.769       93.670786       29.889902       1
       10882.112       84.930061       27.656425       1
       10894.455       104.28411       30.108504       1
       10906.798       79.894945       26.309149       1
       10919.141       101.87015       29.943359       1
       10931.484       66.468087       26.412965       1
       10943.828       85.921539       29.813224       1
       10956.171       81.686245       27.065184       1
       10968.514       92.794983       29.784384       1
       10980.857       93.567924       26.430461       1
       10993.200       70.190121       29.682986       1
       11005.543       68.073307       26.398672       1
       11017.887       76.536738       29.634980       1
       11030.230       86.345110       26.213182       1
       11042.573       93.520540       29.769334       1
       11054.916       88.226406       27.316857       1
       11067.259       92.612190       30.184985       1
       11079.602       87.351643       26.017428       1
       11091.946       88.668890       30.254828       1
       11104.289       72.862765       25.998177       1
       11116.632       84.662953       30.057011       1
       11128.975       98.976699       25.944449       1
       11141.318       102.80089       30.284792       1
       11153.661       108.28481       26.231007       1
       11166.005       68.684783       30.522910       1
       11178.348       95.003554       25.948436       1
       11190.691       91.159525       30.296117       1
       11203.034       105.78367       25.914928       0
       11215.377       66.163615       30.189751       0
       11227.720       95.442343       25.890962       0
       11240.063       85.417229       30.342924       0
       11252.407       77.271259       25.945146       0
       11264.750       87.833609       30.052299       0
       11277.093       81.799795       26.053492       0
       11289.436       89.504548       30.161748       0
       11301.779       90.966234       25.942886       0
       11314.122       79.715531       30.146724       0
       11326.466       88.550888       26.553101       0
       11338.809       83.618384       31.399314       0
       11351.152       67.348099       28.045696       0
       11363.495       84.257237       34.496930       0
       11375.838       89.471520       31.567116       0
       11388.181       112.72000       40.537993       0
       11400.525       57.089232       39.813421       0
       11412.868       87.865553       54.565028       0
       11425.211       82.853699       48.375692       0
       11437.554       107.01968       64.363972       0
       11449.897       112.28890       62.710606       0
       11462.240       81.846695       83.145326       0
       11474.584       92.943079       81.951305       0
       11486.927       46.201601       102.98072       0
       11499.270       79.243005       97.933458       0
       11511.613       19.113423       127.46728       0
       11523.956       100.00738       124.19894       0
       11536.299       161.31401       164.91822       0
       11548.643       172.95773       166.19726       0
       11560.986       130.08973       254.30311       0
       11573.329       6.1311890       254.00437       0
       11585.672      -104.00079       384.81364       0
       11598.015      -103.59198       404.88669       0
       11610.358       29.675397       552.65828       0
       11622.701       132.65551       584.61043       0
       11635.045       513.69506       825.26264       0
       11647.388      -76.473836       852.17738       0
       11659.731      -127.68716       1246.9322       0
       11672.074       2022.2155       1511.4626       0
       11684.417       161.83542       2293.0083       0
       11696.760       204.14626       2405.6185       0
       11709.104      -1088.3780       3657.7441       0
       11721.447      -2368.0929       4164.1749       0
       11733.790       2410.8224       5528.6065       0
       11746.133       1787.5349       5008.9619       0
       11758.476       1359.2713       5889.3228       0
       11770.819       1454.4015       5038.7340       0
       11783.163       564.21078       5602.0548       0
       11795.506      -2736.1840       4746.3657       0
       11807.849       2140.2842       5831.9424       0
       11820.192      -1513.9122       5664.7675       0
       11832.535      -2940.6826       7390.0494       0
       11844.878       442.13477       7741.6684       0
       11857.222      -1966.9401       10484.239       0
       11869.565      -3065.9432       10851.118       0
       11881.908       699.40046       15357.022       0
       11894.251       615.02460       13871.061       0
       11906.594       6318.4627       19795.667       0
       11918.937      -852.70875       21807.755       0
       11931.280      -1133.1076       28901.302       0
       11943.624      -20774.903       29881.633       0
       11955.967      -498.20916       41819.418       0
