#WAVELENGTH FLUX ERROR MASK
       7521.9129       5513.5214       16028.350       0
       7534.2862       3519.7026       10955.907       0
       7546.6595      -3.7607704       10938.528       0
       7559.0328       4113.5205       6983.6805       0
       7571.4062       4763.9926       6867.4687       0
       7583.7795      -334.54889       4355.1321       0
       7596.1528       2277.5192       4458.4289       0
       7608.5261       181.28576       3128.6832       0
       7620.8994       505.66859       3158.5236       0
       7633.2728       1212.3623       2523.8105       0
       7645.6461       1824.3912       2351.0995       0
       7658.0194      -292.51526       1607.9444       0
       7670.3927       973.33834       1669.5265       0
       7682.7660       410.43333       1118.8173       0
       7695.1393       714.73787       1162.4271       0
       7707.5127       467.39121       788.47346       0
       7719.8860       204.37788       846.24763       0
       7732.2593       280.63520       612.44871       0
       7744.6326       293.60840       676.21120       0
       7757.0059       18.388791       497.42065       0
       7769.3793      -51.672774       569.26404       0
       7781.7526      -93.754257       422.56246       0
       7794.1259       76.415401       480.03810       0
       7806.4992       263.51872       350.73228       0
       7818.8725      -165.10575       387.63569       0
       7831.2459       151.61907       280.78093       0
       7843.6192      -145.05865       309.81988       0
       7855.9925      -78.302371       226.23633       0
       7868.3658       93.891623       256.98923       0
       7880.7391      -19.063360       189.18197       0
       7893.1125       99.488804       220.11803       0
       7905.4858       76.901998       165.90626       0
       7917.8591       8.0308649       193.49927       0
       7930.2324       15.708529       153.13678       0
       7942.6057       92.334115       175.47500       0
       7954.9790       56.655863       134.89866       0
       7967.3524      -39.989194       158.87348       0
       7979.7257       60.022044       123.80899       0
       7992.0990       10.723003       147.16068       0
       8004.4723      -8.9165722       115.06600       0
       8016.8456       86.693424       139.00496       0
       8029.2190       39.867437       108.60589       0
       8041.5923      -53.746414       119.22245       0
       8053.9656       51.027447       103.84838       0
       8066.3389       22.304785       126.39860       0
       8078.7122       31.815901       100.07770       0
       8091.0856       29.750490       123.93381       0
       8103.4589       15.927900       96.829862       0
       8115.8322       45.254431       119.57497       0
       8128.2055      -23.444547       92.300068       0
       8140.5788       22.799824       113.33529       0
       8152.9522      -26.690757       101.24666       1
       8165.3255       107.02340       110.06684       1
       8177.6988      -7.0189284       85.997472       1
       8190.0721      -46.559472       104.18893       1
       8202.4454       46.627646       83.535639       1
       8214.8187       81.686184       101.59767       1
       8227.1921       52.000503       82.606755       1
       8239.5654       13.816701       96.205336       1
       8251.9387       39.716228       75.619690       1
       8264.3120       65.583804       91.662485       1
       8276.6853       20.144068       71.562260       1
       8289.0587       92.414176       87.282872       1
       8301.4320       83.872899       68.899013       1
       8313.8053       114.86639       84.106892       1
       8326.1786       22.564492       68.061208       1
       8338.5519       52.423601       80.353740       1
       8350.9253       28.628299       63.860990       1
       8363.2986       47.424285       78.137230       1
       8375.6719       56.999826       62.437794       1
       8388.0452      -30.001635       69.064825       1
       8400.4185       3.9715764       60.384248       1
       8412.7918       45.966039       74.045602       1
       8425.1652       36.313603       58.784068       1
       8437.5385       29.963083       71.514346       1
       8449.9118       31.280356       56.949596       1
       8462.2851       55.631215       69.631381       1
       8474.6584       52.756715       55.370236       1
       8487.0318       13.488016       67.517516       1
       8499.4051       37.766801       53.963750       1
       8511.7784      -10.192268       65.796050       1
       8524.1517       46.183939       60.885950       1
       8536.5250       71.060897       65.277771       1
       8548.8984       36.295375       52.033500       1
       8561.2717       35.636362       64.063948       1
       8573.6450       14.144607       51.128198       1
       8586.0183       35.792481       63.517908       1
       8598.3916       33.222849       51.002606       1
       8610.7650       51.804443       64.898121       1
       8623.1383       31.450138       50.568501       1
       8635.5116       57.220412       62.893920       1
       8647.8849       67.595363       51.063993       1
       8660.2582       17.561749       61.740803       1
       8672.6315       52.386881       49.446753       1
       8685.0049       17.759961       60.197683       1
       8697.3782       27.767079       48.015681       1
       8709.7515       17.778704       58.312605       1
       8722.1248       36.819865       46.372944       1
       8734.4981       26.243995       56.649734       1
       8746.8715       8.8839171       44.939419       1
       8759.2448       13.704868       54.995788       1
       8771.6181       1.9732612       43.796456       1
       8783.9914      -1.0143785       53.237225       1
       8796.3647      -14.399799       42.537037       1
       8808.7381      -11.648578       51.930473       1
       8821.1114       3.9491977       41.704275       1
       8833.4847       52.030570       51.446643       1
       8845.8580      -10.136041       40.424011       1
       8858.2313       35.073282       49.776134       1
       8870.6047       18.506892       39.632186       1
       8882.9780       33.045012       48.837414       1
       8895.3513       54.907033       39.050763       1
       8907.7246       39.822072       48.086770       1
       8920.0979       29.171300       38.456305       1
       8932.4712       6.8329009       47.087418       1
       8944.8446       18.696484       37.637994       1
       8957.2179       4.6198593       45.835841       1
       8969.5912       22.968226       36.836191       1
       8981.9645       27.091444       45.225900       1
       8994.3378       8.4740785       36.004301       1
       9006.7112       2.4365883       47.781204       1
       9019.0845       17.167003       35.701497       1
       9031.4578       5.5050478       43.611923       1
       9043.8311       24.320446       35.160458       1
       9056.2044     -0.99070905       43.175272       1
       9068.5778       7.4826866       34.692174       1
       9080.9511       7.9759177       43.093041       1
       9093.3244       19.976047       34.391811       1
       9105.6977       20.274114       42.449875       1
       9118.0710      -2.6045656       33.439253       1
       9130.4443       1.8684670       41.186502       1
       9142.8177       25.341069       32.952978       1
       9155.1910       36.089481       40.831813       1
       9167.5643       9.2481746       32.334755       1
       9179.9376      0.40715467       39.585080       1
       9192.3109       31.746664       31.928377       1
       9204.6843       32.810838       40.160574       1
       9217.0576       1.6925548       31.063358       1
       9229.4309       11.056265       39.107887       1
       9241.8042      -1.2326975       30.693984       1
       9254.1775       18.855215       37.974013       1
       9266.5509       16.218770       30.453792       1
       9278.9242     -0.37414557       37.464011       1
       9291.2975     -0.54036620       30.052427       1
       9303.6708       5.3389916       37.144853       1
       9316.0441       13.372664       29.764722       1
       9328.4175       17.939802       36.845690       1
       9340.7908       20.842237       29.629827       1
       9353.1641       15.816405       33.585010       1
       9365.5374       22.228092       29.321915       1
       9377.9107       1.6109003       35.984735       1
       9390.2840       28.927621       29.200094       1
       9402.6574       19.722102       35.775975       1
       9415.0307       5.0463715       28.439996       1
       9427.4040       19.786887       35.288872       1
       9439.7773       28.985585       29.693890       1
       9452.1506       8.6611221       31.781420       1
       9464.5240       3.0349554       27.966488       1
       9476.8973       6.0592852       34.270625       1
       9489.2706       32.064125       30.484548       1
       9501.6439       24.396119       33.980012       1
       9514.0172       18.218596       29.857337       1
       9526.3906      -1.0814650       30.414673       1
       9538.7639       13.197446       29.508601       1
       9551.1372       21.377373       33.400345       1
       9563.5105       29.904577       28.106580       1
       9575.8838      0.57981493       32.605281       1
       9588.2572       18.871577       26.448255       1
       9600.6305       24.983961       32.605863       1
       9613.0038       24.713676       26.197296       1
       9625.3771       22.747615       35.212220       1
       9637.7504       8.8336895       26.917536       1
       9650.1237       41.614769       32.288613       1
       9662.4971       27.273822       25.760866       1
       9674.8704       38.227420       32.009873       1
       9687.2437       29.246298       25.558764       1
       9699.6170       14.767486       29.021644       1
       9711.9903       44.561003       26.460996       1
       9724.3637       22.660344       31.297209       1
       9736.7370       43.490221       25.267894       1
       9749.1103       29.094704       30.987268       1
       9761.4836       25.693629       24.814521       1
       9773.8569       30.421720       30.749550       1
       9786.2303       38.404391       25.751390       1
       9798.6036       12.812290       30.325933       1
       9810.9769       28.381588       25.664356       1
       9823.3502       25.979986       30.373202       1
       9835.7235       22.043117       24.398299       1
       9848.0968       46.187253       30.311673       1
       9860.4702       15.172784       27.815765       1
       9872.8435       33.123530       30.204972       1
       9885.2168       30.026078       24.256961       1
       9897.5901       48.038465       32.815704       1
       9909.9634       43.764456       24.314733       1
       9922.3368       30.264274       32.263994       1
       9934.7101       37.005877       24.455788       1
       9947.0834       29.923023       29.722146       1
       9959.4567       27.857478       24.961092       1
       9971.8300       38.597687       9489367.7       1
       9984.2034       26.943280       23.494669       1
       9996.5767       23.555294       28.897693       1
       10008.950       44.114535       26.551601       1
       10021.323       9.8735976       28.525481       1
       10033.697       33.377797       23.065869       1
       10046.070       48.844405       28.699225       1
       10058.443       15.659251       22.837019       1
       10070.817       58.852482       28.490135       1
       10083.190       24.921313       22.880384       1
       10095.563       20.467113       26.150150       1
       10107.937       36.782467       23.022977       1
       10120.310       21.347805       28.149986       1
       10132.683       40.411983       22.883883       1
       10145.057       9.0803227       27.931265       1
       10157.430       23.171685       22.565967       1
       10169.803       33.240583       27.957809       1
       10182.176       20.514971       22.375942       1
       10194.550       29.353550       27.740122       1
       10206.923       20.096788       22.277639       1
       10219.296       34.032896       27.602626       1
       10231.670       31.444172       22.197400       1
       10244.043       16.747973       27.058920       1
       10256.416       27.047407       21.855809       1
       10268.790       22.980321       26.927428       1
       10281.163       28.828209       21.674780       1
       10293.536       28.847545       26.713230       1
       10305.910       39.359862       21.489917       1
       10318.283       30.878883       26.660059       1
       10330.656       26.145027       21.332571       1
       10343.030       38.758204       26.544638       1
       10355.403       18.948333       21.180316       1
       10367.776       13.416139       26.261370       1
       10380.150       36.685101       21.323549       1
       10392.523       55.819679       26.599593       1
       10404.896       15.012173       21.076032       1
       10417.270       22.005911       26.043589       1
       10429.643       26.184601       21.060432       1
       10442.016       15.149607       26.040178       1
       10454.389       29.222589       21.043771       1
       10466.763       12.372841       25.876057       1
       10479.136       31.572309       20.996476       1
       10491.509       32.806490       26.078787       1
       10503.883       45.217929       21.105306       1
       10516.256       28.980542       26.049497       1
       10528.629       29.691171       21.004945       1
       10541.003       14.242373       25.981026       1
       10553.376       25.337076       20.998115       1
       10565.749       28.646246       26.071543       1
       10578.123       27.033036       20.953130       1
       10590.496       29.263584       25.933733       1
       10602.869       19.321899       21.773335       1
       10615.243       15.175712       25.660196       1
       10627.616       33.470947       20.713643       1
       10639.989       29.499912       25.495525       1
       10652.363       39.519778       21.543970       1
       10664.736       19.641479       25.163536       1
       10677.109       34.012295       21.369265       1
       10689.483       25.002649       25.124043       1
       10701.856       31.240152       21.230658       1
       10714.229       33.176734       25.217968       1
       10726.602       24.381051       21.240089       1
       10738.976       40.433268       25.216744       1
       10751.349       34.715547       20.254549       1
       10763.722       34.578813       25.078207       1
       10776.096       26.842813       20.189422       1
       10788.469       20.374898       24.862744       1
       10800.842       39.572153       20.495745       1
       10813.216       17.579477       24.842378       1
       10825.589       33.565694       21.099384       1
       10837.962       10.011240       24.712707       1
       10850.336       21.050207       19.917698       1
       10862.709       22.618618       24.608160       1
       10875.082       20.087375       19.818359       1
       10887.456       21.742788       24.468629       1
       10899.829       28.250157       19.807781       1
       10912.202       15.521261       24.387630       1
       10924.576       20.225200       19.716137       1
       10936.949       23.357352       24.453741       1
       10949.322       16.558755       19.683482       1
       10961.696       30.625477       24.564372       1
       10974.069       22.741308       20.301674       1
       10986.442       15.096442       24.465801       1
       10998.816       41.139586       19.908214       1
       11011.189       38.116871       24.688166       1
       11023.562       35.269041       19.879335       1
       11035.935       20.327775       24.406687       1
       11048.309       22.640022       19.699450       1
       11060.682       15.867623       24.315451       1
       11073.055       27.499472       19.701859       1
       11085.429       15.480312       24.201558       1
       11097.802       31.298796       20.299431       1
       11110.175       10.692622       24.078726       1
       11122.549       24.013372       20.184334       1
       11134.922       37.324309       24.498360       1
       11147.295       26.707139       19.784556       1
       11159.669       31.115146       24.529080       1
       11172.042       28.557049       20.717519       1
       11184.415       40.780150       24.640471       1
       11196.789       19.831369       19.697107       1
       11209.162       30.534921       24.523636       0
       11221.535       28.369347       19.721724       0
       11233.909       25.624681       7706015.7       0
       11246.282       18.048846       19.659305       0
       11258.655       15.741473       24.232119       0
       11271.029       21.753279       19.698386       0
       11283.402       24.593583       24.470023       0
       11295.775       21.454135       19.652389       0
       11308.148       31.828633       24.530813       0
       11320.522       29.963794       19.773766       0
       11332.895       21.180113       24.703949       0
       11345.268       27.317908       20.329933       0
       11357.642       36.650907       25.898013       0
       11370.015       23.965118       21.814035       0
       11382.388      -4.9333555       32.864250       0
       11394.762       41.619508       25.146468       0
       11407.135       38.183016       34.006830       0
       11419.508       39.321707       31.627876       0
       11431.882       47.905022       42.555362       0
       11444.255       13.730644       38.391500       0
       11456.628       49.439097       55.152389       0
       11469.002       45.249411       50.403141       0
       11481.375       38.099825       70.687416       0
       11493.748       106.14085       67.211146       0
       11506.122       66.544084       94.412290       0
       11518.495       56.575937       82.058269       0
       11530.868       103.14561       108.67375       0
       11543.242       54.890035       98.746759       0
       11555.615       104.73278       142.00498       0
       11567.988      -10.014485       135.01756       0
       11580.362       137.51640       203.50887       0
       11592.735       145.49910       202.75286       0
       11605.108       244.47640       314.11381       0
       11617.481       162.09374       313.66318       0
       11629.855       359.71398       483.17894       0
       11642.228       219.42690       472.15537       0
       11654.601       155.61176       703.74832       0
       11666.975       630.94372       695.29525       0
       11679.348       1429.6979       1115.2213       0
       11691.721       1364.5284       1147.9475       0
       11704.095       1616.9680       1892.5183       0
       11716.468       3140.1135       1957.4172       0
       11728.841       2027.3812       3183.2354       0
       11741.215       3052.1791       3297.7466       0
       11753.588       5157.2542   1.4793352e+09       0
       11765.961       3865.3517       3993.6182       0
       11778.335       4720.5743       4938.0313       0
       11790.708       4334.2545       3881.6274       0
       11803.081       1167.1455       4612.9297       0
       11815.455       4500.2939       3795.7305       0
       11827.828       5650.3593       4899.9868       0
       11840.201       4769.4341       4394.3556       0
       11852.575       8675.9922       6248.8342       0
       11864.948       3233.0041       5963.2981       0
       11877.321       3677.9878       8835.9366       0
       11889.694      -1055.3658       9698.3578       0
       11902.068       14442.753       11979.751       0
       11914.441       13111.674       11075.068       0
       11926.814       5983.7745       15567.552       0
       11939.188       10655.129       15670.000       0
       11951.561       5997.1352       23240.148       0
       11963.934       14283.325       22768.674       0
