#WAVELENGTH FLUX ERROR MASK
       10235.046       39.495867       2707.6630       0
       10258.411       2141.2669       2179.4723       0
       10281.776       1847.3079       2022.0223       0
       10305.141       774.57633       1611.3966       0
       10328.507       1360.6965       1562.6432       0
       10351.872       727.37878       1291.4134       0
       10375.237       174.14843       1272.1160       0
       10398.603       1210.6021   5.2623902e+08       0
       10421.968       1651.6093       1064.0075       0
       10445.333       1142.2015       856.48286       0
       10468.699       855.83023       795.77631       0
       10492.064       98.343284       602.22218       0
       10515.429       767.25225       560.32246       0
       10538.794       454.79564       440.10386       0
       10562.160       276.93449       410.91983       0
       10585.525       199.20776       328.84799       0
       10608.890       416.05945       326.89855       0
       10632.256       235.69805       267.29423       0
       10655.621       95.739184       260.35599       0
       10678.986       112.30840       210.04699       0
       10702.351       225.67405       198.00741       0
       10725.717       119.26843       152.23995       0
       10749.082       82.590691       135.50610       0
       10772.447       28.002410       104.35295       0
       10795.813      -29.917457       93.352199       0
       10819.178       83.919961       75.465881       0
       10842.543       55.968479       71.181690       0
       10865.909       93.893884       59.312509       0
       10889.274       118.02116       58.244003       0
       10912.639       78.987351       49.846039       0
       10936.004       40.056202       49.439020       0
       10959.370       15.230212       42.763253       0
       10982.735       62.608266       43.605836       0
       11006.100       10.348599       37.016475       1
       11029.466       43.738313       37.720038       1
       11052.831       20.499198       32.263673       1
       11076.196       104.93189       34.064314       1
       11099.562       36.687629       29.063615       1
       11122.927       32.403531       30.333901       1
       11146.292       50.540915       27.362401       1
       11169.657       18.822471       28.458899       1
       11193.023       54.962657       26.331700       1
       11216.388       66.335390       28.434386       1
       11239.753       50.248609       25.399869       1
       11263.119       25.465394       27.188265       1
       11286.484       32.693228       24.755362       1
       11309.849       18.481321       26.580365       1
       11333.215       26.216702       24.170423       1
       11356.580       36.282882       26.318442       1
       11379.945       72.886504       24.395542       1
       11403.310       56.149192       25.554270       1
       11426.676       77.020973       23.868932       1
       11450.041       19.754743       25.191970       1
       11473.406       44.504573       23.308954       1
       11496.772       38.254485       25.114359       1
       11520.137       53.266004       23.317017       1
       11543.502       27.613252       24.666122       1
       11566.867       62.097694       23.133214       1
       11590.233       22.930675       24.479333       1
       11613.598       50.801641       22.812272       1
       11636.963       24.685112       24.150857       1
       11660.329       41.877607       22.102417       1
       11683.694       30.996541       23.782278       1
       11707.059       49.129023       21.844401       1
       11730.425       39.104201       23.167965       1
       11753.790       44.469295       21.258007       1
       11777.155       36.980382       22.715878       1
       11800.520       43.570618       20.686138       1
       11823.886       41.564797       22.316039       1
       11847.251       46.825233       20.449266       1
       11870.616       52.181453       21.942313       1
       11893.982       38.354382       19.925360       1
       11917.347       30.534487       21.428246       1
       11940.712      -1.6548315       14.253669       1
       11964.078       44.915971       21.360429       1
       11987.443       53.535038       19.604372       1
       12010.808       33.369858       20.856301       1
       12034.173       21.441102       18.984739       1
       12057.539       21.840062       20.424994       1
       12080.904       31.122911       18.840849       1
       12104.269       27.187686       20.361821       1
       12127.635       28.021886       18.526501       1
       12151.000       25.863590       19.955554       1
       12174.365       30.815716       18.252841       1
       12197.730       40.879937       19.973114       1
       12221.096       40.256631       18.274322       1
       12244.461       34.791350       19.697409       1
       12267.826       51.426930       18.016268       1
       12291.192       42.638476       19.460486       1
       12314.557       3.1071178       12.779695       1
       12337.922       61.226811       19.515318       1
       12361.288       51.437279       17.422547       1
       12384.653       21.271743       18.711628       1
       12408.018       38.324092       17.494910       1
       12431.383       29.427674       18.760445       1
       12454.749       37.537454       17.137202       1
       12478.114       38.545163       18.724150       1
       12501.479       22.274163       16.960859       1
       12524.845       42.469702       18.570103       1
       12548.210       43.359266       17.130173       1
       12571.575       55.526838       18.511847       1
       12594.941       38.564411       16.973821       1
       12618.306       24.429994       18.146552       1
       12641.671       35.451392       16.823445       1
       12665.036       42.494910       18.290276       1
       12688.402       38.948502       16.803251       1
       12711.767       39.168236       17.978902       1
       12735.132       40.228862       16.511247       1
       12758.498       7.2874541       13.439305       1
       12781.863       28.995989       16.234347       1
       12805.228       30.109194       17.513708       1
       12828.593       31.077386       15.975728       1
       12851.959       30.196750       17.235601       1
       12875.324       36.720196       16.038451       1
       12898.689       16.080107       17.091544       1
       12922.055       22.066193       15.695198       1
       12945.420       48.400385       17.280495       1
       12968.785       36.695500       15.651938       1
       12992.151       49.999946       17.069139       1
       13015.516       30.870339       15.471888       1
       13038.881       15.862422       16.447331       1
       13062.246       26.034875       15.269784       1
       13085.612       33.789146       16.546828       1
       13108.977       40.552374       15.292046       1
       13132.342       44.900712       16.588046       1
       13155.708       55.827122       15.223626       1
       13179.073       35.636343       16.256697       1
       13202.438       50.779857       15.037401       1
       13225.804       38.992520       16.055852       1
       13249.169       39.795890       14.753838       1
       13272.534       26.326610       15.818878       1
       13295.899       33.129447       14.653007       1
       13319.265       28.461822       15.684496       1
       13342.630       38.032221       14.604194       1
       13365.995       39.850339       15.796711       1
       13389.361       39.849088       14.604691       1
       13412.726       42.850014       15.760890       1
       13436.091       35.940074       14.370740       1
       13459.456       23.777716       15.305179       1
       13482.822       48.744036       14.345749       1
       13506.187       28.091247       15.124767       1
       13529.552       38.083023       14.102403       1
       13552.918       35.175375       15.232851       1
       13576.283       34.648766       14.148880       1
       13599.648       39.206492       15.367649       1
       13623.014       34.742904       14.109481       1
       13646.379       33.731972       15.353386       1
       13669.744       26.042940       14.042548       1
       13693.109       52.709868       15.573424       1
       13716.475       32.244371       14.071788       1
       13739.840       48.308235       15.524740       1
       13763.205       47.426072       14.365323       1
       13786.571       23.936066       15.289842       1
       13809.936       61.610744       14.539836       1
       13833.301       35.354612       15.334196       1
       13856.667       29.012221       14.112068       1
       13880.032       45.709882       15.430018       1
       13903.397       24.610347       14.017620       1
       13926.762       48.316258       15.356631       1
       13950.128       32.633330       14.087122       1
       13973.493       34.559180       15.189655       1
       13996.858       48.175894       14.154887       1
       14020.224       39.168810       15.196351       1
       14043.589       17.602523       13.622082       1
       14066.954       51.495798       15.198465       1
       14090.320       52.577888       14.004903       1
       14113.685       37.019626       15.017806       1
       14137.050       42.818834       13.789107       1
       14160.415       28.895985       14.723619       1
       14183.781       49.268645       13.829848       1
       14207.146      -8.3924136       9.8494163       1
       14230.511       29.709015       13.628317       1
       14253.877      -12.647627       9.7841137       1
       14277.242       32.777428       13.577779       1
       14300.607       44.735339       14.824604       1
       14323.972       46.691344       13.608748       1
       14347.338       48.609213       14.788441       1
       14370.703       33.334840       13.474709       1
       14394.068       32.705625       14.605058       1
       14417.434       45.627931       13.655606       1
       14440.799       26.597336       14.582527       1
       14464.164       28.170787       13.495117       1
       14487.530       39.217134       14.710171       1
       14510.895       34.749452       13.516828       1
       14534.260       44.398877       14.783806       1
       14557.625       46.677343       13.658882       1
       14580.991       38.798159       14.753215       1
       14604.356       36.804859       13.553895       1
       14627.721       34.652816       14.714135       1
       14651.087       26.068214       13.603709       1
       14674.452       26.482861       14.655279       1
       14697.817       31.634750       13.541656       1
       14721.183       55.078548       14.963910       1
       14744.548       30.890973       13.640745       1
       14767.913       43.050058       14.880252       1
       14791.278       23.566198       13.479732       1
       14814.644       32.851697       14.734656       1
       14838.009       40.478240       13.655638       1
       14861.374       37.968881       14.704701       1
       14884.740       36.551490       13.571010       1
       14908.105      -32.824488       9.5589945       1
       14931.470       44.527047       13.593972       1
       14954.835       57.047847       14.807707       1
       14978.201       37.933022       13.400297       1
       15001.566       36.339169       14.425596       1
       15024.931       43.990165       13.444301       1
       15048.297       39.652655       14.372383       1
       15071.662       41.694814       13.507735       1
       15095.027       18.324053       14.375420       1
       15118.393       17.758113       13.242673       1
       15141.758       26.299620       14.389493       1
       15165.123       28.266633       13.308478       1
       15188.488       29.954635       14.365184       1
       15211.854       27.836490       13.204757       1
       15235.219      -38.072380       10.652611       1
       15258.584       18.672172       13.113832       1
       15281.950       59.761998       14.677335       1
       15305.315       34.600127       13.359668       1
       15328.680       28.422949       14.312577       1
       15352.046       43.875595       13.467628       1
       15375.411       35.677660       14.458426       1
       15398.776       31.477039       13.408701       1
       15422.141       33.570189       14.534652       1
       15445.507       33.843933       13.461342       1
       15468.872       44.275940       14.670092       1
       15492.237       32.723020       13.431226       1
       15515.603       21.669784       14.365720       1
       15538.968       41.378404       13.591080       1
       15562.333       46.123599       14.689819       1
       15585.698       20.668007       13.356538       1
       15609.064       28.445386       14.585819       1
       15632.429       33.890961       13.506018       1
       15655.794       31.424973       14.515591       1
       15679.160       32.302187       13.314594       1
       15702.525       26.288858       14.454548       1
       15725.890       11.113097       13.159362       1
       15749.256       26.896123       14.423594       1
       15772.621       31.437397       13.375660       1
       15795.986       28.277396       14.444743       1
       15819.351       36.276887       13.380195       1
       15842.717       45.945315       14.601738       1
       15866.082       31.084222       13.371152       1
       15889.447       31.010007       14.520955       1
       15912.813       22.371708       13.337346       1
       15936.178       33.903041       14.620580       1
       15959.543       25.191318       13.432076       1
       15982.909       48.407989       14.738815       1
       16006.274       31.861948       13.586546       1
       16029.639       34.215093       14.671516       1
       16053.004       62.869202       13.931183       1
       16076.370       20.174445       14.530935       1
       16099.735       40.349833       13.750187       1
       16123.100       34.991983       14.711060       1
       16146.466       27.780859       13.485906       1
       16169.831       33.136194       14.726340       1
       16193.196       26.128767       13.756663       1
       16216.561       36.937659       15.003218       1
       16239.927       28.471707       13.847056       1
       16263.292       18.983017       14.807063       1
       16286.657       30.553026       13.965008       1
       16310.023       36.526977       15.147043       1
       16333.388       31.188538       14.091878       1
       16356.753       34.577978       15.243502       1
       16380.119       38.656358       14.106878       1
       16403.484       10.132235       15.066960       1
       16426.849       48.155726       14.433388       1
       16450.214       54.646866       15.759708       1
       16473.580       24.184387       14.349125       1
       16496.945       35.224827       15.811426       1
       16520.310       32.097895       14.836942       1
       16543.676       14.956273       16.353366       1
       16567.041       29.740865       15.796118       1
       16590.406       37.463347       18.044238       1
       16613.772       38.680579       17.713136       1
       16637.137       37.220983       20.611844       1
       16660.502       42.135943       20.677795       1
       16683.867       23.023413       24.415764       1
       16707.233       22.019886       25.020131       1
       16730.598       24.960928       30.451497       1
       16753.963       51.419180       32.175987       0
       16777.329       46.748272       39.763070       0
       16800.694       62.763748       42.158022       0
       16824.059       89.470547       52.215389       0
       16847.424       35.826160       53.900136       0
       16870.790       90.541911       66.198761       0
       16894.155       145.72687       69.061205       0
       16917.520       154.14197       83.296105       0
       16940.886       105.71257       85.528460       0
       16964.251       127.34263       103.54381       0
       16987.616       43.401940       106.23785       0
       17010.982       176.92462       130.17986       0
       17034.347       225.37927       133.93133       0
       17057.712       367.12486       162.75651       0
       17081.077       206.75570       164.86969       0
       17104.443       12.248037       198.14032       0
       17127.808       524.29960       213.58730       0
       17151.173       228.13359       262.71397       0
       17174.539       596.45792       282.62207       0
       17197.904       807.73939       354.70979       0
       17221.269       306.37949       368.84482       0
       17244.635       578.03917       449.98958       0
       17268.000       507.78644       470.89418       0
       17291.365       1012.5627       566.83188       0
       17314.730       669.43866       576.21392       0
       17338.096       732.96261       685.33269       0
       17361.461       102.53834       699.55485       0
       17384.826       622.70443       856.53806       0
       17408.192       818.46703       861.63198       0
       17431.557       1705.7541       1030.0863       0
       17454.922       2005.2676       1055.4721       0
       17478.288       1823.7412       1316.2151       0
       17501.653       260.84722       1454.9291       0
