#WAVELENGTH FLUX ERROR MASK
       10235.046       838.11705       2737.2391       0
       10258.411       2000.6446       2174.5199       0
       10281.776       1052.3588       2021.7434       0
       10305.141       2199.0128       1634.8092       0
       10328.507       1246.1567       1562.6837       0
       10351.872       1833.4144       1307.2427       0
       10375.237       456.27068       1281.3987       0
       10398.603       543.47031   3.0382424e+08       0
       10421.968       364.87189       1020.3017       0
       10445.333       185.40474       846.33693       0
       10468.699       244.21702       815.80007       0
       10492.064       348.46906       612.59565       0
       10515.429       545.55407       554.93375       0
       10538.794       461.77762       440.88041       0
       10562.160       75.268977       407.63698       0
       10585.525       196.00428       332.89933       0
       10608.890       163.08116       323.06922       0
       10632.256       223.31358       268.85290       0
       10655.621       114.23967       260.42668       0
       10678.986       231.23878       210.72633       0
       10702.351       106.64055       196.53127       0
       10725.717       184.65903       153.80154       0
       10749.082       144.48145       138.37572       0
       10772.447       116.93498       105.45851       0
       10795.813     -0.89103302       94.885956       0
       10819.178       76.175834       75.002410       0
       10842.543       39.927508       70.977561       0
       10865.909       69.388619       58.675778       0
       10889.274       40.527451       57.883019       0
       10912.639       13.346782       49.160314       0
       10936.004       42.087202       49.641705       0
       10959.370       52.910620       43.221500       0
       10982.735       19.144400       43.247289       0
       11006.100       26.667553       37.107380       1
       11029.466       29.380128       37.385809       1
       11052.831       29.600952       32.371590       1
       11076.196       41.054688       33.106570       1
       11099.562       22.055652       29.018911       1
       11122.927       18.783812       30.173391       1
       11146.292       43.704471       27.271174       1
       11169.657       12.231872       28.491623       1
       11193.023       32.054739       26.040213       1
       11216.388       37.165634       28.071327       1
       11239.753       37.392441       25.408820       1
       11263.119       6.7511165       26.943743       1
       11286.484       28.879917       24.843694       1
       11309.849       21.610882       26.580309       1
       11333.215       20.764610       24.219927       1
       11356.580       41.925151       26.325116       1
       11379.945       33.598441       23.906090       1
       11403.310       18.317331       25.403947       1
       11426.676       18.806552       23.266445       1
       11450.041       16.580621       25.151296       1
       11473.406       17.476461       23.027742       1
       11496.772       18.057051       24.915957       1
       11520.137       26.400402       22.889068       1
       11543.502       7.3344664       22.164180       1
       11566.867       31.556219       22.820583       1
       11590.233       24.918976       24.568040       1
       11613.598       21.702527       22.436434       1
       11636.963       24.197690       24.218817       1
       11660.329       33.705474       22.141442       1
       11683.694       2.0413655       21.197062       1
       11707.059       13.375311       21.290301       1
       11730.425       32.069274       22.951634       1
       11753.790       18.541423       20.906034       1
       11777.155       14.621992       22.492723       1
       11800.520       28.248318       20.588029       1
       11823.886       15.408190       21.953127       1
       11847.251       14.455137       20.027758       1
       11870.616       20.780416       19.716747       1
       11893.982       6.8203938       19.610661       1
       11917.347       8.1292682       21.154823       1
       11940.712       14.505502       19.444439       1
       11964.078       19.279395       20.994914       1
       11987.443       14.875710       19.180857       1
       12010.808       17.410959       20.613754       1
       12034.173       28.169570       19.039550       1
       12057.539       24.954348       20.521844       1
       12080.904       31.128426       18.841344       1
       12104.269       22.280693       20.220001       1
       12127.635       22.071661       18.501110       1
       12151.000       32.790390       20.082422       1
       12174.365       14.541202       16.696879       1
       12197.730       20.754029       19.651891       1
       12221.096       34.934324       18.150740       1
       12244.461       24.411882       19.466081       1
       12267.826       22.350204       17.762331       1
       12291.192       31.411305       19.346468       1
       12314.557       28.113262       17.670055       1
       12337.922       26.234844       19.123778       1
       12361.288       21.994459       17.435346       1
       12384.653       26.322557       18.929478       1
       12408.018       19.233676       17.241799       1
       12431.383       28.563489       18.767869       1
       12454.749       28.831526       17.199727       1
       12478.114       17.493916       18.384913       1
       12501.479       29.230930       17.105292       1
       12524.845       30.133419       18.473270       1
       12548.210       27.067822       16.974925       1
       12571.575       35.597721       18.362017       1
       12594.941       23.204268       16.790053       1
       12618.306       20.297733       18.163403       1
       12641.671       16.012684       16.585769       1
       12665.036       35.242033       18.231083       1
       12688.402       23.719298       16.554908       1
       12711.767       33.877619       17.997991       1
       12735.132       22.170135       16.338087       1
       12758.498       30.276862       17.629963       1
       12781.863       19.586858       16.091302       1
       12805.228       34.244572       17.532722       1
       12828.593       11.084094       15.720332       1
       12851.959       19.142229       15.657303       1
       12875.324       33.919137       15.985362       1
       12898.689       4.3734233       15.333777       1
       12922.055       30.660656       15.809693       1
       12945.420       20.159690       16.972695       1
       12968.785       29.296530       15.591010       1
       12992.151       20.362015       16.757013       1
       13015.516       28.136551       15.393798       1
       13038.881       18.024913       16.481410       1
       13062.246       18.071401       15.122669       1
       13085.612       11.631855       14.766703       1
       13108.977       20.688883       15.060240       1
       13132.342       14.043676       16.157847       1
       13155.708       21.030996       14.929077       1
       13179.073       26.693703       16.150901       1
       13202.438       16.635333       14.661669       1
       13225.804       25.290327       15.914549       1
       13249.169       17.140548       14.506146       1
       13272.534       22.420287       15.837729       1
       13295.899       24.267376       14.558187       1
       13319.265       24.577198       15.765422       1
       13342.630       29.931435       14.557180       1
       13365.995       23.716474       15.562770       1
       13389.361       22.772486       14.336847       1
       13412.726       25.627911       15.554094       1
       13436.091       28.241047       14.271692       1
       13459.456       25.931557       15.391407       1
       13482.822       19.702055       13.998548       1
       13506.187       19.339644       15.114952       1
       13529.552       25.970174       14.043252       1
       13552.918       33.540907       15.213161       1
       13576.283       22.876062       13.977976       1
       13599.648       28.157111       15.251683       1
       13623.014       25.372266       14.039578       1
       13646.379       23.950395       15.194327       1
       13669.744       26.796874       13.997921       1
       13693.109       27.175623       15.230967       1
       13716.475       19.422116       13.882069       1
       13739.840       19.972244       15.147779       1
       13763.205       34.056383       14.213030       1
       13786.571       30.646675       15.315599       1
       13809.936       16.405140       12.962877       1
       13833.301       20.406561       15.073684       1
       13856.667       23.363562       13.045617       1
       13880.032       24.659671       15.125420       1
       13903.397       30.193442       14.151656       1
       13926.762       34.735088       15.298222       1
       13950.128       26.864858       14.082349       1
       13973.493       32.885228       15.154338       1
       13996.858       34.007801       14.008649       1
       14020.224       13.280170       14.806068       1
       14043.589       20.976040       13.753540       1
       14066.954       26.307279       14.870932       1
       14090.320       22.965202       13.678151       1
       14113.685       10.378856       13.325683       1
       14137.050       24.979394       13.652323       1
       14160.415       34.069577       14.786489       1
       14183.781       25.499586       13.674557       1
       14207.146       24.959261       14.699554       1
       14230.511       15.885926       13.515966       1
       14253.877       24.377920       14.641653       1
       14277.242       19.526389       13.426028       1
       14300.607       28.547375       14.643033       1
       14323.972       15.470027       13.359290       1
       14347.338       25.850566       14.481681       1
       14370.703       28.637953       13.430040       1
       14394.068       25.322909       14.476370       1
       14417.434       17.788751       13.269967       1
       14440.799       21.524952       14.510988       1
       14464.164       25.348938       13.424346       1
       14487.530       21.369835       14.534435       1
       14510.895       20.279850       13.313571       1
       14534.260       36.755414       14.646966       1
       14557.625       18.148921       13.338487       1
       14580.991       15.966180       14.461074       1
       14604.356       28.843974       13.466959       1
       14627.721       18.725358       14.543610       1
       14651.087       22.837884       13.513040       1
       14674.452       4.3526873       13.462641       1
       14697.817       18.142077       13.445010       1
       14721.183       20.745959       14.618951       1
       14744.548       21.659883       13.536338       1
       14767.913       23.753782       14.674334       1
       14791.278       27.976141       13.549834       1
       14814.644       25.978096       14.705060       1
       14838.009       20.568576       13.492840       1
       14861.374       14.281989       14.465448       1
       14884.740       11.157635       12.239623       1
       14908.105       19.996926       14.466033       1
       14931.470       16.816159       13.276035       1
       14954.835       23.161130       14.433239       1
       14978.201       23.766283       13.254816       1
       15001.566       24.806298       14.361073       1
       15024.931       13.447483       13.197110       1
       15048.297       12.491678       14.212654       1
       15071.662       22.906978       13.250929       1
       15095.027       20.240952       14.343182       1
       15118.393       17.836918       13.216900       1
       15141.758       26.215562       14.389221       1
       15165.123       14.063044       13.132569       1
       15188.488       7.6787450       14.147435       1
       15211.854       25.593681       13.211708       1
       15235.219       19.312074       14.277615       1
       15258.584       21.702298       13.189501       1
       15281.950       22.779998       14.271459       1
       15305.315       19.734608       13.166712       1
       15328.680       27.978401       14.374334       1
       15352.046       22.118399       13.243252       1
       15375.411     -0.73162087       12.917731       1
       15398.776       22.801462       13.264510       1
       15422.141       18.426363       14.952256       1
       15445.507       13.913550       13.233760       1
       15468.872       11.793428       14.349031       1
       15492.237       20.199251       13.297752       1
       15515.603       15.171731       14.345517       1
       15538.968      -23.084502       10.903129       1
       15562.333       21.352561       14.496498       1
       15585.698       16.304526       13.332323       1
       15609.064       22.451941       14.520646       1
       15632.429       16.983141       13.268199       1
       15655.794       25.310745       3506650.9       1
       15679.160       18.877279       3498065.3       1
       15702.525       30.499852       14.488483       1
       15725.890       22.221788       13.294319       1
       15749.256       19.367057       14.272696       1
       15772.621       18.874220       13.223005       1
       15795.986       20.261002       14.279296       1
       15819.351       31.719343       13.337375       1
       15842.717       21.649866       14.382867       1
       15866.082       22.085306       13.277506       1
       15889.447       15.130519       14.308728       1
       15912.813       13.282607       13.238979       1
       15936.178       23.164001       14.481772       1
       15959.543       3.4977203       13.218553       1
       15982.909       25.915425       14.529986       1
       16006.274       19.808250       13.399645       1
       16029.639       18.289506       14.523407       1
       16053.004       17.924336       13.421720       1
       16076.370       24.009065       14.612376       1
       16099.735       28.875101       13.614667       1
       16123.100       11.155918       14.509745       1
       16146.466       19.676878       13.489596       1
       16169.831       22.986777       14.748597       1
       16193.196       21.686739       13.686859       1
       16216.561       28.269928       14.920857       1
       16239.927       10.626414       13.667542       1
       16263.292       29.440552       15.079006       1
       16286.657       13.138547       13.774355       1
       16310.023       15.205898       15.029624       1
       16333.388       20.478370       13.974564       1
       16356.753       23.964114       15.242624       1
       16380.119       27.521104       14.216364       1
       16403.484       24.501554       15.286313       1
       16426.849       34.759251       14.418323       1
       16450.214       19.759139       15.433750       1
       16473.580       28.115008       14.523094       1
       16496.945       23.347664       15.798348       1
       16520.310       23.080061       14.831070       1
       16543.676       25.018792       16.447456       1
       16567.041       8.7222392       15.642947       1
       16590.406       35.978371       18.000697       1
       16613.772       16.477031       17.490251       1
       16637.137       27.893647       20.366621       1
       16660.502       17.849658       20.400520       1
       16683.867       35.343888       24.434888       1
       16707.233       29.473313       25.052470       1
       16730.598       25.637757       30.396091       1
       16753.963       34.849447       31.941872       0
       16777.329       55.862551       39.648475       0
       16800.694       46.086648       41.961252       0
       16824.059       90.699881       51.857647       0
       16847.424       71.848893       54.518201       0
       16870.790       97.875371       66.035283       0
       16894.155       110.52408       68.533651       0
       16917.520       130.03997       83.241893       0
       16940.886       55.279903       85.038494       0
       16964.251       92.544193       102.90607       0
       16987.616       145.21080       107.23774       0
       17010.982       142.35822       129.67870       0
       17034.347       74.586253       133.11031       0
       17057.712       135.54998       159.87499       0
       17081.077       138.56400       164.55101       0
       17104.443       310.01389       201.50785       0
       17127.808       222.07645       210.22251       0
       17151.173       325.27565       263.12306       0
       17174.539       283.01604       72778431.       0
       17197.904       317.93134       347.65762       0
       17221.269       207.68601       365.86665       0
       17244.635       262.24392       447.73978       0
       17268.000       456.48190       468.06763       0
       17291.365      -400.68086       515.09634       0
       17314.730       567.26815       575.35703       0
       17338.096       1123.7759       683.07577       0
       17361.461       818.48586       702.78560       0
       17384.826       1114.8273       858.85682       0
       17408.192       966.78094       863.27980       0
       17431.557       1016.2119       1017.5951       0
       17454.922       1515.8811       1053.7865       0
       17478.288       252.36911       1294.7337       0
       17501.653       580.35363       1461.5886       0
