#WAVELENGTH FLUX ERROR MASK
       7500.0352      -3275.7761       19369.171       0
       7512.1766       5605.5862       12957.100       0
       7524.3181      -952.11195       13757.783       0
       7536.4595      -5936.9457       9326.0089       0
       7548.6010       21994.687       9563.5501       0
       7560.7424       3829.6870       5977.9756       0
       7572.8838       3786.5610       6016.4107       0
       7585.0253       1894.7010       3787.4902       0
       7597.1667      -2658.4829       3870.1336       0
       7609.3082      -1933.0416       2602.0540       0
       7621.4496      -410.78065       2789.2735       0
       7633.5910      -1194.3656       1907.1996       0
       7645.7325      -3002.1187       2044.3036       0
       7657.8739      -1586.3944       1408.5472       0
       7670.0154      -633.86744       1481.7391       0
       7682.1568      -155.95418       1036.3668       0
       7694.2982      -402.52222       1032.3025       0
       7706.4397       101.79212       733.01240       0
       7718.5811      -347.62649       761.23268       0
       7730.7226       408.64081       539.26928       0
       7742.8640       51.414348       609.19595       0
       7755.0054      -170.39734       442.53550       0
       7767.1469      -207.33052       512.60902       0
       7779.2883      -112.90128       378.26598       0
       7791.4298       144.03259       436.60431       0
       7803.5712       176.06708       317.16504       0
       7815.7127       332.66441       358.54305       0
       7827.8541      -97.836460       254.66105       0
       7839.9955      -182.77868       288.73119       0
       7852.1370       106.65390       207.10511       0
       7864.2784      -26.468823       233.91681       0
       7876.4199       164.27969       172.83252       0
       7888.5613       12.964894       200.63863       0
       7900.7027       38.304320       161.24738       0
       7912.8442      -2.8331067       176.16275       0
       7924.9856       90.822756       133.59573       0
       7937.1271       28.157163       211.26975       0
       7949.2685      -27.765207       120.84458       0
       7961.4099      -168.08253       144.33193       0
       7973.5514      -50.799864       141.60367       0
       7985.6928       57.376731       133.71513       0
       7997.8343      -6.2665375       103.68930       0
       8009.9757      -82.404668       126.93293       0
       8022.1171       82.072992       97.014590       0
       8034.2586      -48.549972       117.69723       0
       8046.4000       99.294286       93.577973       0
       8058.5415       61.670224       116.31614       0
       8070.6829      -47.551595       88.406894       0
       8082.8243       74.902951       109.69160       0
       8094.9658      -146.62263       85.224400       0
       8107.1072       10.102363       104.92529       0
       8119.2487       26.756419       105.94990       0
       8131.3901       126.32873       103.60553       0
       8143.5315       27.869830       80.143154       0
       8155.6730       19.071651       98.158444       1
       8167.8144       48.494936       85.798697       1
       8179.9559       39.236516       94.873335       1
       8192.0973      -3.7891226       74.211591       1
       8204.2387      -46.947905       92.301953       1
       8216.3802      -10.958077       71.244043       1
       8228.5216       59.031501       86.940401       1
       8240.6631       25.966554       67.894970       1
       8252.8045       32.439216       97.936479       1
       8264.9459      -37.105793       63.900751       1
       8277.0874       48.370374       79.547992       1
       8289.2288      -11.303700       61.732407       1
       8301.3703       102.64544       89.697500       1
       8313.5117       77.579102       59.400126       1
       8325.6532      -16.127642       71.657611       1
       8337.7946      -4.0122469       56.570045       1
       8349.9360       12.215321       69.991203       1
       8362.0775       35.211295       55.441086       1
       8374.2189       94.419885       68.862459       1
       8386.3604       67.944331       54.087877       1
       8398.5018       37.084239       66.895048       1
       8410.6432       19.948017       52.504636       1
       8422.7847      -25.579126       64.186420       1
       8434.9261       30.381526       50.780408       1
       8447.0676      0.44820012       63.502602       1
       8459.2090      -23.887149       48.839006       1
       8471.3504      -19.142524       61.162762       1
       8483.4919       46.048966       48.088373       1
       8495.6333       64.811526       59.396870       1
       8507.7748       3.6832695       59.433358       1
       8519.9162      -62.534079       56.985997       1
       8532.0576       30.373658       45.824653       1
       8544.1991      -3.7307087       56.471404       1
       8556.3405       77.241017       46.053578       1
       8568.4820      0.69497764       55.746822       1
       8580.6234       42.579136       44.933734       1
       8592.7648      -1.0132802       56.453604       1
       8604.9063       77.943531       44.816478       1
       8617.0477       67.736237       57.062838       1
       8629.1892       55.782325       45.539639       1
       8641.3306       76.449054       55.702352       1
       8653.4720       5.1811168       46.911330       1
       8665.6135       54.492909       55.478713       1
       8677.7549       16.020245       43.715164       1
       8689.8964       60.084750       52.892489       1
       8702.0378       32.231185       41.171275       1
       8714.1792       60.053816       51.415473       1
       8726.3207      -18.965143       39.376776       1
       8738.4621       89.873938       49.424680       1
       8750.6036       56.127879       43.045568       1
       8762.7450       62.537003       47.712429       1
       8774.8864      -20.665528       37.460298       1
       8787.0279      -32.642603       47.125708       1
       8799.1693      -18.646328       36.684969       1
       8811.3108      -26.863897       45.590581       1
       8823.4522       20.869212       36.515215       1
       8835.5936       6.6123371       44.591616       1
       8847.7351       37.453477       35.591982       1
       8859.8765       56.685633       44.102602       1
       8872.0180      -2.5183078       34.470214       1
       8884.1594      -9.4091811       42.951003       1
       8896.3009       15.381606       34.210197       1
       8908.4423       50.369430       42.757259       1
       8920.5837       24.572599       33.772295       1
       8932.7252       72.704903       42.361499       1
       8944.8666      0.34918901       38.549635       1
       8957.0081       6.0238935       40.864429       1
       8969.1495       59.047728       38.243239       1
       8981.2909       13.069368       40.134118       1
       8993.4324       41.064509       31.895587       1
       9005.5738       37.542142       40.378079       1
       9017.7153       46.361278       31.674588       1
       9029.8567       67.619291       39.750283       1
       9041.9981       29.968083       31.452669       1
       9054.1396       36.890876       39.792290       1
       9066.2810       35.695919       31.276647       1
       9078.4225       45.533780       38.611412       1
       9090.5639      -7.6540474       34.349516       1
       9102.7053      -10.415926       38.040934       1
       9114.8468       73.682022       30.100306       1
       9126.9882       10.725371       36.430911       1
       9139.1297       33.203320       29.488152       1
       9151.2711       61.080276       36.636964       1
       9163.4125       19.162715       28.877349       1
       9175.5540       3.9238395       36.292387       1
       9187.6954       41.016481       28.424382       1
       9199.8369       57.565911       35.489442       1
       9211.9783       51.499616       27.915381       1
       9224.1197       31.691762       34.641986       1
       9236.2612       27.793955       32.396984       1
       9248.4026       8.1839766       33.802134       1
       9260.5441       19.024321       27.170820       1
       9272.6855       57.101123       34.202110       1
       9284.8269       29.958449       27.175718       1
       9296.9684       27.705775       33.494166       1
       9309.1098       34.713345       26.632538       1
       9321.2513       75.605432       33.564613       1
       9333.3927       31.343654       26.431300       1
       9345.5341       22.229998       32.928918       1
       9357.6756       26.259824       26.359892       1
       9369.8170       47.877513       32.598269       1
       9381.9585       33.725616       26.114580       1
       9394.0999       52.916398       32.532600       1
       9406.2414       41.750528       25.652428       1
       9418.3828       29.354672       32.564955       1
       9430.5242       12.538105       25.216813       1
       9442.6657       19.792181       32.147279       1
       9454.8071       16.048376       24.581015       1
       9466.9486       25.348630       31.245116       1
       9479.0900       26.651583       24.679332       1
       9491.2314       44.641900       31.156929       1
       9503.3729       22.711186       24.483081       1
       9515.5143       11.678622       30.343055       1
       9527.6558       17.929005       24.200427       1
       9539.7972       21.629529       30.105599       1
       9551.9386       33.500060       24.204050       1
       9564.0801       59.856068       30.000674       1
       9576.2215       20.394333       23.838413       1
       9588.3630       37.694319       37.317625       1
       9600.5044       20.864489       23.875855       1
       9612.6458       50.145525       30.199847       1
       9624.7873       61.431023       23.575641       1
       9636.9287       34.280120       29.161143       1
       9649.0702       42.421265       23.322667       1
       9661.2116       26.220410       28.873378       1
       9673.3530       41.465237       23.071519       1
       9685.4945       3.3790322       28.779591       1
       9697.6359       20.310482       22.926842       1
       9709.7774       75.032904       28.959419       1
       9721.9188       58.104330       29.509464       1
       9734.0602       32.117850       33.859012       1
       9746.2017       39.108963       22.620432       1
       9758.3431       52.593207       28.419331       1
       9770.4846       36.274010       24.825423       1
       9782.6260       52.809757       28.205466       1
       9794.7674       40.680818       22.497865       1
       9806.9089       40.925944       27.976738       1
       9819.0503       15.437734       22.071578       1
       9831.1918       54.200608       28.067402       1
       9843.3332       51.960930       28.444544       1
       9855.4746       63.547276       28.106342       1
       9867.6161       11.250345       21.911899       1
       9879.7575       29.275591       27.672915       1
       9891.8990       25.219403       22.059061       1
       9904.0404       30.162321       27.616661       1
       9916.1819       16.746645       21.845211       1
       9928.3233       41.748769       27.495718       1
       9940.4647       42.907215       21.897786       1
       9952.6062       37.081508       26.772292       1
       9964.7476       38.234920       21.589446       1
       9976.8891       33.736846       26.811219       1
       9989.0305       18.380888       21.350096       1
       10001.172       30.633886       26.392065       1
       10013.313       25.774927       21.070989       1
       10025.455       15.076949       26.024392       1
       10037.596       38.581338       21.023840       1
       10049.738       22.589718       26.251656       1
       10061.879       25.352629       20.970436       1
       10074.021       11.320977       26.714406       1
       10086.162       28.723230       21.278895       1
       10098.303       31.892825       26.315270       1
       10110.445       13.164013       20.914432       1
       10122.586      -5.3354483       26.463460       1
       10134.728       29.899348       20.748749       1
       10146.869       4.0549903       25.911020       1
       10159.011       46.094328       20.840030       1
       10171.152       29.495120       25.724714       1
       10183.294       22.242486       20.538875       1
       10195.435       30.507942       26.150829       1
       10207.576       17.739174       20.416893       1
       10219.718     -0.22727389       25.180324       1
       10231.859       22.699240       20.188706       1
       10244.001       17.034518       39.912019       1
       10256.142       13.759775       20.053536       1
       10268.284       11.623807       25.392973       1
       10280.425       37.212344       19.969747       1
       10292.567       4.3780190       24.931842       1
       10304.708       25.248353       19.741820       1
       10316.849       59.378172       25.002037       1
       10328.991       32.228208       19.664915       1
       10341.132       54.396154       24.732165       1
       10353.274       11.206537       19.401975       1
       10365.415       41.840965       24.705231       1
       10377.557       15.570238       19.750322       1
       10389.698       31.065293       24.931967       1
       10401.839       25.520283       19.616800       1
       10413.981       35.428155       24.506968       1
       10426.122       30.810072       21.589455       1
       10438.264       18.707309       24.159347       1
       10450.405       27.324222       19.437770       1
       10462.547       39.845386       24.923220       1
       10474.688       34.981232       19.613900       1
       10486.830       32.419744       24.491573       1
       10498.971       16.337488       19.377161       1
       10511.112       1.5081671       24.576592       1
       10523.254       24.484123       19.498513       1
       10535.395       33.435416       24.626259       1
       10547.537       31.323969       19.617876       1
       10559.678       44.436129       24.545768       1
       10571.820       44.168819       19.621114       1
       10583.961       8.2090908       24.667400       1
       10596.103       27.316338       19.333364       1
       10608.244       19.248754       24.118875       1
       10620.385       28.412800       19.383167       1
       10632.527       62.626382       24.361661       1
       10644.668       38.755994       22.267747       1
       10656.810       55.185065       24.052063       1
       10668.951       37.455330       19.182708       1
       10681.093       34.586557       24.995611       1
       10693.234       51.028545       19.130666       1
       10705.375       67.420122       23.793532       1
       10717.517       35.369157       19.009523       1
       10729.658       3.2139664       23.476755       1
       10741.800       42.609464       21.529232       1
       10753.941       44.473796       23.703882       1
       10766.083       35.566685       22.471904       1
       10778.224       36.907032       23.779074       1
       10790.366       35.437266       18.900673       1
       10802.507       50.263922       23.823194       1
       10814.648       48.390559       19.022430       1
       10826.790       44.167000       23.627797       1
       10838.931       61.530782       18.884609       1
       10851.073       43.812702       23.483939       1
       10863.214       43.684637       18.761744       1
       10875.356       16.682022       23.254683       1
       10887.497       31.615992       18.680311       1
       10899.639       50.697391       23.662379       1
       10911.780       22.242262       18.785034       1
       10923.921       15.238314       23.132600       1
       10936.063       19.265890       18.570784       1
       10948.204       22.831109       23.105624       1
       10960.346       27.803719       18.617215       1
       10972.487       54.562167       23.563080       1
       10984.629       28.533051       18.685539       1
       10996.770       46.478455       23.369599       1
       11008.911       25.729699       18.474002       1
       11021.053       41.452593       23.361539       1
       11033.194       46.016855       18.660572       1
       11045.336       41.452857       23.278683       1
       11057.477       19.739269       21.700651       1
       11069.619       23.780825       23.031221       1
       11081.760       33.612344       18.503011       1
       11093.902       44.304442       23.242524       1
       11106.043       39.215299       22.030796       1
       11118.184       53.142300       23.397805       1
       11130.326       27.259998       18.548399       1
       11142.467       40.479323       23.246481       1
       11154.609       33.978801       18.607817       1
       11166.750       55.356161       23.342409       1
       11178.892       35.646777       18.501274       1
       11191.033       25.681157       23.048588       1
       11203.175       44.516230       18.629002       0
       11215.316       39.909390       23.170676       0
       11227.457       27.839289       18.684630       0
       11239.599       30.681539       23.183962       0
       11251.740       37.735504       18.490426       0
       11263.882       46.830689       23.285980       0
       11276.023       26.620715       19.041666       0
       11288.165       35.676086       23.215536       0
       11300.306       38.076879       18.661273       0
       11312.448       37.280476       23.422941       0
       11324.589       59.219372       19.213058       0
       11336.730       40.617568       24.545971       0
       11348.872       41.289835       20.424516       0
       11361.013       46.857290       26.989354       0
       11373.155       51.447684       24.037027       0
       11385.296       27.222006       31.337631       0
       11397.438       30.561110       28.535795       0
       11409.579       26.110702       38.718569       0
       11421.720       44.890490       34.924384       0
       11433.862       54.748908       49.741261       0
       11446.003       110.08222       45.700705       0
       11458.145       83.352695       63.914414       0
       11470.286       108.89423       57.919890       0
       11482.428       18.495305       80.855997       0
       11494.569       111.40955       71.334393       0
       11506.711       56.421588       98.277759       0
       11518.852       25.694454       88.062090       0
       11530.993      -28.992003       125.67972       0
       11543.135       32.120187       118.45059       0
       11555.276       139.10549       178.01096       0
       11567.418      -10.087194       174.10902       0
       11579.559       171.63831       269.06366       0
       11591.701       512.14709       270.30887       0
       11603.842       662.03054       418.38349       0
       11615.984       429.10803       406.08213       0
       11628.125       399.19185       613.23083       0
       11640.266       238.39358       592.13805       0
       11652.408       1391.1385       924.34685       0
       11664.549       914.96220       936.54226       0
       11676.691       324.13539       1523.3503       0
       11688.832       1953.1438       1594.1593       0
       11700.974       2966.1812       2616.3586       0
       11713.115       1668.7327       2730.3113       0
       11725.256       689.19904       4266.6764       0
       11737.398       2395.7285       3688.9139       0
       11749.539       1278.3625       4832.2414       0
       11761.681      -550.00788       3702.9612       0
       11773.822       2667.3941       4567.7184       0
       11785.964       6082.5957       3568.9448       0
       11798.105       488.37371       4507.2079       0
       11810.247       1995.1145       3889.8269       0
       11822.388      -676.58005       6359.6650       0
       11834.529       2270.3298       5090.0106       0
       11846.671       6446.9801       7442.8775       0
       11858.812       7473.6715       7225.2098       0
