#WAVELENGTH FLUX ERROR MASK
       7521.9129       1348.1107       15923.009       0
       7534.2862       444.44006       10938.807       0
       7546.6595       389.60293       10935.519       0
       7559.0328       5809.6251       6994.1339       0
       7571.4062      -4179.2078       6755.5339       0
       7583.7795       1092.2679       4355.4476       0
       7596.1528      -3722.1936       4377.7024       0
       7608.5261       898.94665       3208.4886       0
       7620.8994      -83.668172       3147.8759       0
       7633.2728       848.31922       2194.1076       0
       7645.6461      -184.54588       2328.6049       0
       7658.0194       2264.3367       1625.5785       0
       7670.3927      -165.28855       1660.5288       0
       7682.7660      -269.97378       1110.1001       0
       7695.1393       959.91936       1162.5813       0
       7707.5127       424.02001       785.56173       0
       7719.8860      -192.77553       845.86075       0
       7732.2593       234.48883       603.84105       0
       7744.6326       486.14555       678.47464       0
       7757.0059     -0.51233971       498.27718       0
       7769.3793       156.78661       572.04315       0
       7781.7526       100.74640       422.04884       0
       7794.1259       261.38630       482.56583       0
       7806.4992      -284.91865       346.90202       0
       7818.8725       324.54054       392.19573       0
       7831.2459       324.89009       283.20858       0
       7843.6192       212.76107       312.61150       0
       7855.9925       150.71443       228.29100       0
       7868.3658      -9.5218037       263.78183       0
       7880.7391       267.98012       191.09804       0
       7893.1125       274.35756       228.17213       0
       7905.4858       136.95346       202.49086       0
       7917.8591       398.47958       197.16621       0
       7930.2324       138.36739       146.28215       0
       7942.6057      -13.315951       173.23124       0
       7954.9790       34.225696       134.57987       0
       7967.3524       84.810098       159.59068       0
       7979.7257       86.545079       123.53775       0
       7992.0990       89.895104       148.47885       0
       8004.4723       78.587722       123.72916       0
       8016.8456      -19.062390       137.56914       0
       8029.2190      -37.759567       115.28361       0
       8041.5923      -98.027606       144.80501       0
       8053.9656       46.232694       103.77089       0
       8066.3389       17.167412       140.94076       0
       8078.7122       7.5871786       99.637816       0
       8091.0856       58.813706       122.71258       0
       8103.4589      -53.770158       95.776588       0
       8115.8322       14.324327       117.02323       0
       8128.2055       58.215270       93.460460       0
       8140.5788       28.348143       97.782019       0
       8152.9522       114.83083       90.456227       1
       8165.3255       52.387721       109.89553       1
       8177.6988       41.505367       86.505998       1
       8190.0721      -47.344778       104.28565       1
       8202.4454       23.882320       83.267295       1
       8214.8187       85.499982       101.28057       1
       8227.1921       104.87268       80.026366       1
       8239.5654       61.049805       96.297721       1
       8251.9387       45.912801       76.679264       1
       8264.3120       27.090892       91.262356       1
       8276.6853       58.239836       71.995439       1
       8289.0587      -34.944764       75.038962       1
       8301.4320       54.490877       68.695174       1
       8313.8053       15.767588       82.943321       1
       8326.1786       56.968921       70.763264       1
       8338.5519       4.8984457       79.911378       1
       8350.9253       66.657889       64.088243       1
       8363.2986       35.122328       78.184819       1
       8375.6719       20.028678       61.723738       1
       8388.0452       40.301826       76.143741       1
       8400.4185       43.688808       60.728259       1
       8412.7918       70.217273       74.522654       1
       8425.1652       49.450568       58.810005       1
       8437.5385       38.271158       71.448005       1
       8449.9118       38.113129       57.032504       1
       8462.2851       43.833575       69.676459       1
       8474.6584       46.419177       55.274539       1
       8487.0318       10.341640       67.401001       1
       8499.4051       53.652938       54.123890       1
       8511.7784       28.869376       66.147262       1
       8524.1517       46.562864       52.881057       1
       8536.5250       31.418080       64.718460       1
       8548.8984       44.509583       51.950806       1
       8561.2717       25.699013       63.737112       1
       8573.6450       40.791665       51.344523       1
       8586.0183       35.875942       63.529822       1
       8598.3916       39.586882       51.130345       1
       8610.7650       68.837668       63.629226       1
       8623.1383       48.504422       51.811029       1
       8635.5116       32.781557       62.728489       1
       8647.8849       28.440332       51.593497       1
       8660.2582       110.66716       62.695282       1
       8672.6315       24.082890       49.175717       1
       8685.0049       79.299760       60.614405       1
       8697.3782       30.678107       47.868479       1
       8709.7515      -10.910635       56.201730       1
       8722.1248       19.501995       45.901693       1
       8734.4981       3.8556448       55.108817       1
       8746.8715       24.408075       47.213811       1
       8759.2448       30.518228       54.728903       1
       8771.6181       21.960960       52.331352       1
       8783.9914       20.673917       52.771498       1
       8796.3647       35.655762       42.850946       1
       8808.7381       12.119272       51.557660       1
       8821.1114       32.292184       41.638582       1
       8833.4847       5.1688775       50.763466       1
       8845.8580       48.615837       43.810691       1
       8858.2313       8.8837101       49.674718       1
       8870.6047       22.812400       39.562994       1
       8882.9780       6.5041046       48.258466       1
       8895.3513       17.788658       38.720882       1
       8907.7246       20.199806       47.806731       1
       8920.0979       9.5500078       38.192258       1
       8932.4712       27.208732       47.309956       1
       8944.8446       13.385053       37.554112       1
       8957.2179       51.024184       46.558707       1
       8969.5912       37.554823       36.862589       1
       8981.9645       84.593895       45.931938       1
       8994.3378       7.8100740       35.495549       1
       9006.7112       11.933087       44.569292       1
       9019.0845       14.512224       35.441264       1
       9031.4578       27.310130       44.119534       1
       9043.8311       32.365659       35.564940       1
       9056.2044       21.115471       43.685526       1
       9068.5778      -2.3756767       34.682368       1
       9080.9511       14.775568       43.186145       1
       9093.3244       35.500102       34.436100       1
       9105.6977       8.0575227       36.482290       1
       9118.0710       40.069438       36.363067       1
       9130.4443       41.342558       41.370604       1
       9142.8177       53.818716       33.451901       1
       9155.1910       42.897602       40.761771       1
       9167.5643       34.229818       32.381106       1
       9179.9376       53.578711       40.205349       1
       9192.3109       24.742662       31.875053       1
       9204.6843       41.426127       39.428633       1
       9217.0576       24.516344       31.326728       1
       9229.4309       44.382881       38.599033       1
       9241.8042       31.884948       30.952240       1
       9254.1775       5.9034874       38.037781       1
       9266.5509       27.525997       30.537244       1
       9278.9242       30.732582       37.611701       1
       9291.2975       12.708422       31.866556       1
       9303.6708       23.376344       37.242537       1
       9316.0441       28.071507       29.811828       1
       9328.4175       15.961802       36.770564       1
       9340.7908       24.919627       29.532023       1
       9353.1641       54.122568       36.877968       1
       9365.5374       36.010742       29.405579       1
       9377.9107       43.855522       36.475676       1
       9390.2840       27.971450       29.139864       1
       9402.6574       5.5470835       35.702762       1
       9415.0307       30.448909       28.736702       1
       9427.4040       31.582583       35.435543       1
       9439.7773       22.465744       28.246322       1
       9452.1506       25.008478       34.911489       1
       9464.5240       43.488211       28.024645       1
       9476.8973       35.931085       34.534824       1
       9489.2706       24.143769       27.602606       1
       9501.6439       10.075039       34.022415       1
       9514.0172       31.499270       27.328641       1
       9526.3906       11.642900       33.586340       1
       9538.7639       18.501336       28.916655       1
       9551.1372       13.087678       33.206590       1
       9563.5105       48.593657       28.956415       1
       9575.8838       26.778685       33.068949       1
       9588.2572       57.050562       26.725714       1
       9600.6305       37.687840       32.776300       1
       9613.0038       28.536443       26.163680       1
       9625.3771       67.064407       37.081287       1
       9637.7504       26.621039       25.932206       1
       9650.1237       27.661716       32.101041       1
       9662.4971       21.326789       25.769779       1
       9674.8704       32.282688       12682736.       1
       9687.2437       56.082993       25.739782       1
       9699.6170       47.099280       31.833424       1
       9711.9903       32.359904       25.466915       1
       9724.3637       62.924211       31.678238       1
       9736.7370       45.315709       27.077106       1
       9749.1103       41.215025       31.087341       1
       9761.4836       42.715078       25.022574       1
       9773.8569       37.512932       30.743958       1
       9786.2303       25.043315       24.668806       1
       9798.6036       40.245820       30.598256       1
       9810.9769       58.515954       24.744001       1
       9823.3502       52.329617       30.634970       1
       9835.7235       44.972836       24.659871       1
       9848.0968       39.231450       30.290670       1
       9860.4702       64.816795       29.791349       1
       9872.8435       52.496018       30.826421       1
       9885.2168       33.785938       24.358288       1
       9897.5901       32.231128       30.159663       1
       9909.9634       50.123540       24.226657       1
       9922.3368       38.540251       29.929544       1
       9934.7101       51.010448       24.090932       1
       9947.0834       41.018529       29.826805       1
       9959.4567       42.916428       23.918699       1
       9971.8300       18.933869       29.193517       1
       9984.2034       38.650881       23.617889       1
       9996.5767       44.396110       29.103712       1
       10008.950       45.439588       23.308726       1
       10021.323       36.569559       28.702616       1
       10033.697       47.060535       23.121740       1
       10046.070       33.536203       28.413315       1
       10058.443       39.503898       24.620894       1
       10070.817       22.046654       28.278585       1
       10083.190       44.038312       24.782821       1
       10095.563       35.688019       28.336377       1
       10107.937       42.115735       29.056747       1
       10120.310       46.119895       28.467170       1
       10132.683       53.106852       22.951556       1
       10145.057       36.900868       28.224130       1
       10157.430       42.671264       22.768120       1
       10169.803       42.802594       28.087874       1
       10182.176       37.610348       22.502555       1
       10194.550       25.255090       27.738813       1
       10206.923       45.047703       22.466225       1
       10219.296       76.731976       28.029732       1
       10231.670       28.777340       22.144471       1
       10244.043       31.970952       27.238965       1
       10256.416       31.201718       21.865191       1
       10268.790       34.921796       27.044040       1
       10281.163       24.012317       21.637364       1
       10293.536       40.534397       30.095393       1
       10305.910       41.461298       21.576041       1
       10318.283       36.054741       26.408233       1
       10330.656       39.211277       21.422942       1
       10343.030       40.864028       26.494006       1
       10355.403       34.408670       21.340022       1
       10367.776       12.913051       26.217815       1
       10380.150       41.039662       21.352435       1
       10392.523       14.235823       26.175408       1
       10404.896       48.541175       21.355264       1
       10417.270       33.572073       26.288297       1
       10429.643       24.733964       21.059140       1
       10442.016       50.180942       26.342967       1
       10454.389       54.351915       21.209953       1
       10466.763       23.020807       26.026195       1
       10479.136       38.230407       21.060515       1
       10491.509       31.874748       26.081051       1
       10503.883       34.170361       20.981055       1
       10516.256       38.347429       26.111843       1
       10528.629       45.761220       21.169623       1
       10541.003       37.308425       29.507032       1
       10553.376       40.063337       21.134031       1
       10565.749       54.643091       29.688260       1
       10578.123       43.468987       21.010318       1
       10590.496       45.369565       26.189476       1
       10602.869       19.265614       20.717886       1
       10615.243       30.755591       25.677915       1
       10627.616       38.168630       20.737184       1
       10639.989       46.393191       25.697390       1
       10652.363       29.089858       21.972113       1
       10664.736       67.117274       25.676764       1
       10677.109       41.156187       21.920233       1
       10689.483       18.229210       25.103399       1
       10701.856       30.269049       21.767510       1
       10714.229       47.420153       25.239523       1
       10726.602       40.632362       21.264645       1
       10738.976       17.851370       24.969841       1
       10751.349       42.527072       21.209344       1
       10763.722       37.600279       25.106554       1
       10776.096       17.067204       20.516231       1
       10788.469       46.355280       24.957666       1
       10800.842       47.191328       20.637298       1
       10813.216       28.824477       24.900339       1
       10825.589       42.010728       20.578473       1
       10837.962       19.283943       24.797054       1
       10850.336       41.041622       20.119117       1
       10862.709       48.211631       24.903299       1
       10875.082       47.540862       19.973946       1
       10887.456       43.418625       24.785578       1
       10899.829       33.494733       19.851942       1
       10912.202       31.036940       24.491351       1
       10924.576       29.580286       19.807011       1
       10936.949       44.206283       24.699263       1
       10949.322       30.421144       19.799259       1
       10961.696       38.565726       24.619872       1
       10974.069       32.196995       19.815004       1
       10986.442       28.500548       24.490346       1
       10998.816       52.024777       20.008833       1
       11011.189       27.941155       24.518319       1
       11023.562       22.932070       19.802470       1
       11035.935       39.379797       24.484430       1
       11048.309       62.346656       20.027348       1
       11060.682       34.435202       24.387183       1
       11073.055       31.298861       19.690310       1
       11085.429       9.8281417       24.149957       1
       11097.802       30.716321       19.611265       1
       11110.175       28.850624       24.134724       1
       11122.549       29.790301       19.667368       1
       11134.922       27.535478       24.431423       1
       11147.295       37.330520       19.833717       1
       11159.669       47.144257       24.675910       1
       11172.042       49.358349       19.931706       1
       11184.415       44.262008       24.645555       1
       11196.789       30.850325       19.771001       1
       11209.162       5.9652380       24.371716       0
       11221.535       42.648680       19.763326       0
       11233.909       32.446033       24.492291       0
       11246.282       5.2698376       19.512350       0
       11258.655       11.627675       24.283583       0
       11271.029       42.760181       19.853163       0
       11283.402       31.554373       24.489292       0
       11295.775       30.844631       19.667312       0
       11308.148       21.072010       24.329213       0
       11320.522       20.798928       19.728917       0
       11332.895       29.106943       24.793641       0
       11345.268       35.255052       20.413471       0
       11357.642       56.241597       26.224464       0
       11370.015       27.858533       21.901610       0
       11382.388       53.711602       29.159803       0
       11394.762       26.571260       24.961285       0
       11407.135       46.073966       34.133267       0
       11419.508       27.020391       30.311228       0
       11431.882       26.379730       42.439081       0
       11444.255       56.864050       38.753036       0
       11456.628       85.456190       55.135476       0
       11469.002       62.678197       50.440147       0
       11481.375       40.533522       70.507776       0
       11493.748       99.275990       63.876776       0
       11506.122       2.1767802       86.715187       0
       11518.495       80.473169       78.459963       0
       11530.868       10.843084       107.80478       0
       11543.242       77.035330       99.038415       0
       11555.615       144.63130       141.83522       0
       11567.988       109.01662       162.20867       0
       11580.362       205.98909       204.13216       0
       11592.735       175.08432       202.64513       0
       11605.108       305.70323       313.01986       0
       11617.481       575.43643       316.78223       0
       11629.855       684.67449       486.78059       0
       11642.228       405.26111       473.63831       0
       11654.601       547.98538       712.72089       0
       11666.975       1242.3684       696.89247       0
       11679.348       720.26877       1122.9544       0
       11691.721       1281.9222       1144.4920       0
       11704.095       1370.9204       1907.2636       0
       11716.468       3445.4020       1955.9872       0
       11728.841       6633.8929       3224.2118       0
       11741.215       3926.1426       3300.1110       0
       11753.588       3095.3177       4698.0192       0
       11765.961       4708.3481       3998.9165       0
       11778.335       6816.8835       4971.8405       0
       11790.708       4051.8566       3881.3427       0
       11803.081       3287.0156       4642.7879       0
       11815.455       7483.9281       3820.4264       0
       11827.828       301.82391       4851.3663       0
       11840.201       7359.9858       4437.4785       0
       11852.575       3932.4873       6257.2907       0
       11864.948       7629.8120       6014.0484       0
       11877.321       6800.1232       8915.9450       0
       11889.694       5000.8067       8421.9302       0
       11902.068       16552.465       12012.058       0
       11914.441       5627.6281       11030.963       0
       11926.814       7199.1945       15635.323       0
       11939.188       14176.955       16100.114       0
       11951.561       13302.204       23426.955       0
       11963.934       18692.728       27970.853       0
