#WAVELENGTH FLUX ERROR MASK
       7500.0352      -4430.0811       19522.800       0
       7512.1766      -11794.292       12859.074       0
       7524.3181       7908.5352       13866.146       0
       7536.4595       6422.2281       10214.983       0
       7548.6010       2431.1075       9367.1892       0
       7560.7424       2364.5681       6361.0310       0
       7572.8838       5672.4314       5925.1140       0
       7585.0253       1259.7627       3784.7367       0
       7597.1667       2944.6317       3917.6820       0
       7609.3082      -350.29258       2605.9607       0
       7621.4496      -589.99992       2794.3593       0
       7633.5910      -1970.2417       1907.3213       0
       7645.7325      -1215.9256       2076.3023       0
       7657.8739      -13.098601       1421.4685       0
       7670.0154       1040.6155       1500.1205       0
       7682.1568       607.02026       1000.4576       0
       7694.2982      -2.3729342       1037.7809       0
       7706.4397       200.63102       716.96503       0
       7718.5811       1083.3244       773.00532       0
       7730.7226       620.86034       543.92450       0
       7742.8640      -170.42186       611.76457       0
       7755.0054       140.79187       447.86660       0
       7767.1469      -110.48223       513.64638       0
       7779.2883       192.37671       382.35639       0
       7791.4298       174.35411       456.26530       0
       7803.5712      -131.33308       315.00838       0
       7815.7127       78.590141       356.05777       0
       7827.8541      -12.029744       254.69190       0
       7839.9955       262.54885       288.93198       0
       7852.1370      -19.928765       206.42148       0
       7864.2784       192.60267       237.39164       0
       7876.4199       38.787058       173.05955       0
       7888.5613       56.034002       200.11253       0
       7900.7027     -0.42827644       157.68634       0
       7912.8442       10.267054       176.22365       0
       7924.9856      -13.833629       133.82200       0
       7937.1271       168.26076       189.21708       0
       7949.2685       26.051720       121.42579       0
       7961.4099       64.172299       146.61628       0
       7973.5514       116.87609       111.57010       0
       7985.6928       85.976768       134.43900       0
       7997.8343       19.988943       103.66676       0
       8009.9757       39.536401       125.81264       0
       8022.1171       62.725375       97.582528       0
       8034.2586      -3.9177214       118.56185       0
       8046.4000       38.532867       92.920723       0
       8058.5415       58.565909       113.95465       0
       8070.6829       30.552136       89.632117       0
       8082.8243       62.295499       110.07300       0
       8094.9658       58.843684       86.339180       0
       8107.1072       10.034537       106.27073       0
       8119.2487       21.072599       82.913815       0
       8131.3901       49.699775       103.57004       0
       8143.5315       5.6717781       80.170378       0
       8155.6730      -34.672643       98.657601       1
       8167.8144       18.209668       80.170323       1
       8179.9559       22.489252       127.02659       1
       8192.0973       8.3525757       74.354385       1
       8204.2387      -80.603909       90.367878       1
       8216.3802       63.892524       72.031775       1
       8228.5216      -15.566473       86.904809       1
       8240.6631       4.5621473       67.862281       1
       8252.8045       106.73958       90.915215       1
       8264.9459       10.582290       64.198597       1
       8277.0874      -64.863116       77.580651       1
       8289.2288       35.159404       61.439593       1
       8301.3703      0.84608609       81.999354       1
       8313.5117       1.5442441       58.743484       1
       8325.6532       33.247191       71.877811       1
       8337.7946      -35.153500       56.453643       1
       8349.9360       9.5555955       69.782660       1
       8362.0775      -26.874061       57.216582       1
       8374.2189       43.548547       68.223762       1
       8386.3604       56.505888       54.130843       1
       8398.5018      -5.4593115       66.462782       1
       8410.6432       20.521961       52.565336       1
       8422.7847       13.098064       64.574657       1
       8434.9261       37.745121       50.988577       1
       8447.0676       63.250225       62.816633       1
       8459.2090       34.381418       49.487797       1
       8471.3504       13.524993       60.386328       1
       8483.4919       42.237234       48.225159       1
       8495.6333      -8.7901928       59.520493       1
       8507.7748       32.273190       46.793092       1
       8519.9162       15.584362       58.277936       1
       8532.0576       6.8782859       45.599927       1
       8544.1991       43.222627       57.001909       1
       8556.3405       4.3554586       45.036882       1
       8568.4820       9.1061028       56.046583       1
       8580.6234       37.872680       45.061412       1
       8592.7648      -19.289554       56.093899       1
       8604.9063       7.7007339       44.372336       1
       8617.0477      -16.020563       55.829735       1
       8629.1892      -17.573361       45.339888       1
       8641.3306       78.909335       56.210211       1
       8653.4720       33.632090       45.647888       1
       8665.6135      -33.787799       53.701987       1
       8677.7549       47.194002       43.684152       1
       8689.8964       77.661512       53.265239       1
       8702.0378       15.023917       41.813947       1
       8714.1792       12.705014       50.721508       1
       8726.3207       7.1463331       39.685065       1
       8738.4621      -2.2543638       49.002978       1
       8750.6036       18.596531       40.031837       1
       8762.7450       9.7609379       47.581662       1
       8774.8864       19.442200       37.764928       1
       8787.0279       45.922221       53.991450       1
       8799.1693       24.552906       37.393870       1
       8811.3108       31.719451       54.743208       1
       8823.4522      -2.0374149       36.371329       1
       8835.5936       2.8131725       44.707828       1
       8847.7351       24.778846       35.621818       1
       8859.8765       7.4797828       43.775651       1
       8872.0180       7.6333344       34.791419       1
       8884.1594       7.7641432       43.462280       1
       8896.3009       11.435075       34.696167       1
       8908.4423       21.657426       42.956936       1
       8920.5837      0.32216024       34.168942       1
       8932.7252       29.972301       42.103001       1
       8944.8666       27.805205       35.533428       1
       8957.0081      -16.744880       41.133078       1
       8969.1495       40.492480       36.540235       1
       8981.2909      -5.8678264       40.471196       1
       8993.4324       6.0174852       31.717811       1
       9005.5738       12.625356       39.621041       1
       9017.7153       31.960500       31.688342       1
       9029.8567       43.547483       45.406278       1
       9041.9981       32.664282       31.501999       1
       9054.1396       21.065429       39.070269       1
       9066.2810       30.931474       31.328049       1
       9078.4225       17.785584       38.362990       1
       9090.5639       17.445295       30.540696       1
       9102.7053      0.96891307       44.264021       1
       9114.8468       50.272383       32.274034       1
       9126.9882       36.153166       36.581581       1
       9139.1297       29.623756       29.531183       1
       9151.2711       45.326977       36.545557       1
       9163.4125       38.668810       28.972609       1
       9175.5540       32.537987       35.925044       1
       9187.6954       19.297098       28.272741       1
       9199.8369       63.766902       35.605649       1
       9211.9783       15.680227       28.900803       1
       9224.1197       35.592743       34.756434       1
       9236.2612       33.076713       27.554122       1
       9248.4026       18.213982       34.162485       1
       9260.5441       13.556158       27.077506       1
       9272.6855       29.831836       33.938426       1
       9284.8269       19.422133       26.761017       1
       9296.9684       43.977424       33.717014       1
       9309.1098       17.527940       26.470741       1
       9321.2513       6.3185548       33.175122       1
       9333.3927       34.928139       29.016260       1
       9345.5341       8.5314483       32.772911       1
       9357.6756       2.6812951       27.772953       1
       9369.8170       59.971600       32.522112       1
       9381.9585       10.134059       25.960931       1
       9394.0999       17.913960       32.221021       1
       9406.2414       26.775254       25.415585       1
       9418.3828       30.302081       32.029509       1
       9430.5242       19.903773       25.183480       1
       9442.6657       29.023248       31.559111       1
       9454.8071       28.571589       24.797364       1
       9466.9486       43.877970       31.347551       1
       9479.0900       2.0454775       24.605432       1
       9491.2314       20.830349       31.292766       1
       9503.3729       37.817984       24.646697       1
       9515.5143       54.770747       30.880507       1
       9527.6558       12.695922       24.215511       1
       9539.7972       33.521064       30.630648       1
       9551.9386       14.730901       24.071086       1
       9564.0801       16.608708       30.188157       1
       9576.2215       4.0346239       23.927813       1
       9588.3630       15.471652       34.395388       1
       9600.5044       34.106361       23.701551       1
       9612.6458       20.467720       29.415619       1
       9624.7873       16.403930       23.304122       1
       9636.9287       24.536292       29.269810       1
       9649.0702       32.836736       23.326212       1
       9661.2116       18.008238       29.107006       1
       9673.3530       6.5394099       22.962824       1
       9685.4945       12.809423       28.632862       1
       9697.6359       32.976519       23.197542       1
       9709.7774       10.435829       28.609294       1
       9721.9188       23.887258       22.771200       1
       9734.0602       32.421647       31.046559       1
       9746.2017       20.977299       22.587996       1
       9758.3431       35.755035       28.615227       1
       9770.4846       5.1172471       22.422915       1
       9782.6260       24.793275       28.401215       1
       9794.7674       39.479449       22.577735       1
       9806.9089       8.1514353       27.788829       1
       9819.0503       24.994762       22.259830       1
       9831.1918       27.703579       27.912395       1
       9843.3332       32.235064       22.234062       1
       9855.4746       5.6250758       27.892268       1
       9867.6161       33.571314       23.682107       1
       9879.7575       26.274729       27.949702       1
       9891.8990       26.111806       22.146696       1
       9904.0404       9.1741635       27.639313       1
       9916.1819       38.633420       22.104436       1
       9928.3233       55.791528       27.696296       1
       9940.4647       27.622538       21.819853       1
       9952.6062       33.836470       27.006506       1
       9964.7476       13.804965       21.521341       1
       9976.8891       29.173076       27.136447       1
       9989.0305       28.989435       21.336475       1
       10001.172       17.238912       26.490238       1
       10013.313      -13.126775       20.837692       1
       10025.455       36.500796       26.432335       1
       10037.596       17.317338       20.929990       1
       10049.738       19.432383       26.515952       1
       10061.879       34.565036       24.116680       1
       10074.021       13.809611       26.485205       1
       10086.162       11.003944       20.957148       1
       10098.303       7.4558216       26.259507       1
       10110.445       14.321284       20.927212       1
       10122.586       25.425599       33.827507       1
       10134.728       5.9970763       20.817646       1
       10146.869       31.648586       26.125421       1
       10159.011       23.327383       20.992971       1
       10171.152       25.667107       25.770812       1
       10183.294       6.3692366       20.535413       1
       10195.435       18.871819       25.590633       1
       10207.576       13.921936       20.380298       1
       10219.718       22.749288       25.458884       1
       10231.859       10.972963       20.135597       1
       10244.001       13.154828       25.433016       1
       10256.142       19.816702       20.116669       1
       10268.284       6.3104022       24.892699       1
       10280.425       16.344817       19.800173       1
       10292.567       13.027499       24.854873       1
       10304.708       26.113157       20.809922       1
       10316.849       7.9057601       24.494092       1
       10328.991       24.380786       19.694378       1
       10341.132       37.376449       24.586703       1
       10353.274       13.207447       19.546506       1
       10365.415       9.3220888       24.383783       1
       10377.557       31.641084       19.628103       1
       10389.698       27.954133       24.490731       1
       10401.839       21.225602       19.422535       1
       10413.981       11.895279       24.263035       1
       10426.122       18.521666       19.423534       1
       10438.264       17.615216       24.312692       1
       10450.405       10.069748       19.352256       1
       10462.547       12.417389       30.907638       1
       10474.688       24.078539       19.470360       1
       10486.830       35.828529       24.529211       1
       10498.971       23.252524       19.529344       1
       10511.112       13.573932       24.205210       1
       10523.254       5.9387165       20.806477       1
       10535.395       21.841836       24.636729       1
       10547.537       33.514595       19.557528       1
       10559.678       21.265411       24.528432       1
       10571.820       12.992663       19.363655       1
       10583.961       31.250867       24.375648       1
       10596.103       34.348100       19.428597       1
       10608.244       17.469736       24.205981       1
       10620.385       24.090672       19.407441       1
       10632.527       15.730652       23.942487       1
       10644.668       26.110551       20.499992       1
       10656.810       21.625246       24.464266       1
       10668.951       22.066109       19.056427       1
       10681.093       29.464488       23.734392       1
       10693.234       18.502330       18.931657       1
       10705.375       17.378062       23.682239       1
       10717.517       12.958379       18.925817       1
       10729.658       22.627136       23.581884       1
       10741.800       20.318879       18.920076       1
       10753.941       27.670554       27.800893       1
       10766.083       12.526739       18.898892       1
       10778.224       22.723428       23.820483       1
       10790.366       29.366995       20.187004       1
       10802.507       15.070675       23.661963       1
       10814.648       20.959249       18.867859       1
       10826.790       27.880414       23.594227       1
       10838.931       30.029304       18.748979       1
       10851.073       13.467774       23.546105       1
       10863.214       16.816740       18.642155       1
       10875.356       39.410553       23.428998       1
       10887.497       27.315425       18.669665       1
       10899.639       25.944329       23.327442       1
       10911.780       20.223799       18.546913       1
       10923.921       16.898643       23.144554       1
       10936.063       20.957082       18.558031       1
       10948.204       44.713979       23.617276       1
       10960.346       30.494719       18.649928       1
       10972.487       13.235446       23.173474       1
       10984.629       24.597922       18.617543       1
       10996.770       25.768841       23.201530       1
       11008.911       13.067892       18.416706       1
       11021.053       22.161198       23.048604       1
       11033.194       27.196211       18.472286       1
       11045.336       17.749363       23.308966       1
       11057.477       28.331952       18.483320       1
       11069.619       36.085709       23.072921       1
       11081.760       38.856198       18.512134       1
       11093.902       26.425510       22.996789       1
       11106.043       27.725322       18.474589       1
       11118.184       16.427818       23.185775       1
       11130.326       34.070996       18.472031       1
       11142.467       48.578413       23.314924       1
       11154.609       32.132816       18.469130       1
       11166.750       27.515733       23.257469       1
       11178.892       27.605533       18.468073       1
       11191.033       17.303892       22.882616       1
       11203.175       22.359358       18.366018       0
       11215.316       46.973337       23.370146       0
       11227.457       23.689699       18.396844       0
       11239.599       34.058564       23.054552       0
       11251.740       25.269212       18.657007       0
       11263.882       24.654712       23.202158       0
       11276.023       16.036809       18.670473       0
       11288.165       24.484200       23.159712       0
       11300.306       27.864287       18.459397       0
       11312.448       30.896030       27.444945       0
       11324.589       9.5959876       18.765756       0
       11336.730       22.103730       24.220698       0
       11348.872       15.131007       21.478214       0
       11361.013       28.258053       26.914626       0
       11373.155       25.732329       22.814551       0
       11385.296       14.291223       31.297086       0
       11397.438       39.627402       27.456923       0
       11409.579       2.3223238       38.206131       0
       11421.720       16.029721       34.668648       0
       11433.862      -15.757083       49.457133       0
       11446.003       33.966986       45.253229       0
       11458.145       28.499331       63.782413       0
       11470.286       35.447025       57.175753       0
       11482.428      -25.152454       79.073160       0
       11494.569       70.192497       70.608908       0
       11506.711       69.441720       98.435415       0
       11518.852       63.348192       87.593827       0
       11530.993       172.75991       126.42237       0
       11543.135       46.069675       117.89677       0
       11555.276      -8.4237969       177.76934       0
       11567.418       75.594816       173.35247       0
       11579.559       26.992934       270.60683       0
       11591.701       189.86446       267.51126       0
       11603.842       147.22676       416.67114       0
       11615.984       196.04876       405.46762       0
       11628.125      -518.45494       611.46771       0
       11640.266       255.55902       588.99171       0
       11652.408      -206.13873       906.53414       0
       11664.549      -172.34889       928.26217       0
       11676.691      -159.83532       1512.4896       0
       11688.832       865.44688       1578.8294       0
       11700.974      -891.37926       3320.0875       0
       11713.115       755.26675       2718.0058       0
       11725.256      -1961.1428       4173.6273       0
       11737.398       303.87133       3650.3337       0
       11749.539       1066.3518       4711.4992       0
       11761.681       1154.5673       3706.5515       0
       11773.822      -1071.2869       4501.9323       0
       11785.964       1031.4518       3525.7058       0
       11798.105       1821.7584       4510.9987       0
       11810.247       280.53027       3857.2696       0
       11822.388       2362.6829       5947.6396       0
       11834.529      -633.09411       5052.7540       0
       11846.671       955.41219       7493.6238       0
       11858.812       5228.4242       7475.2040       0
