#WAVELENGTH FLUX ERROR MASK
       7500.0352       6278.6874       19400.106       0
       7512.1766      -5698.5476       12858.267       0
       7524.3181       7548.3151       14731.577       0
       7536.4595       292.82446       9742.6979       0
       7548.6010      -2956.4948       9326.0627       0
       7560.7424      -117.25842       5923.5139       0
       7572.8838       1841.8164       5854.4705       0
       7585.0253      -1009.4212       3760.3081       0
       7597.1667      -1367.3269       3865.8573       0
       7609.3082       97.792638       2622.8366       0
       7621.4496       2006.2480       2806.7122       0
       7633.5910       1049.8141       1928.1401       0
       7645.7325       113.02066       2075.8128       0
       7657.8739       118.29171       1422.0971       0
       7670.0154       388.70841       1646.5510       0
       7682.1568       249.02153       1003.7008       0
       7694.2982       543.72253       1243.4164       0
       7706.4397      -235.77928       700.68002       0
       7718.5811       3.5590439       760.10698       0
       7730.7226       102.65806       557.63244       0
       7742.8640      -162.56907       605.01308       0
       7755.0054      -76.410483       444.20594       0
       7767.1469       467.75688       516.96929       0
       7779.2883      -206.43338       380.24785       0
       7791.4298      -97.957714       435.70965       0
       7803.5712      -43.494775       315.33530       0
       7815.7127       119.00075       366.45793       0
       7827.8541      -5.8702667       263.81824       0
       7839.9955       17.065739       286.18670       0
       7852.1370       26.257884       206.61852       0
       7864.2784      -88.492812       233.20713       0
       7876.4199       13.022698       172.03871       0
       7888.5613      -40.837336       198.43691       0
       7900.7027       68.177915       149.85865       0
       7912.8442       90.893101       176.36168       0
       7924.9856      -52.057697       132.60836       0
       7937.1271      -59.050320       158.22390       0
       7949.2685       100.33442       121.98929       0
       7961.4099       16.109616       145.56253       0
       7973.5514       7.8591657       124.31708       0
       7985.6928      -45.141435       133.59402       0
       7997.8343       69.364217       104.86549       0
       8009.9757       11.851930       142.25139       0
       8022.1171       33.262096       97.039114       0
       8034.2586       52.028578       130.24923       0
       8046.4000       66.083418       93.246396       0
       8058.5415      -47.813473       125.60502       0
       8070.6829     -0.75963857       89.048600       0
       8082.8243      -16.853907       109.11200       0
       8094.9658       23.507647       86.337487       0
       8107.1072       151.51242       108.29833       0
       8119.2487       23.341929       83.249052       0
       8131.3901      -4.9564943       102.18173       0
       8143.5315      -3.1985403       79.822184       0
       8155.6730       10.039130       98.437702       1
       8167.8144      -59.528786       76.481024       1
       8179.9559       38.528665       104.87784       1
       8192.0973      -22.475278       74.208486       1
       8204.2387       20.081569       91.384312       1
       8216.3802       33.278020       74.278163       1
       8228.5216       35.085907       87.301370       1
       8240.6631      -42.834079       67.627715       1
       8252.8045       34.390020       83.360155       1
       8264.9459       51.745178       64.789736       1
       8277.0874       33.118204       83.933198       1
       8289.2288      -3.7599554       64.118313       1
       8301.3703       27.223281       75.588188       1
       8313.5117       12.366281       59.041170       1
       8325.6532       19.929812       72.939280       1
       8337.7946       18.651847       59.730166       1
       8349.9360       1.4863490       70.498153       1
       8362.0775       3.6594484       57.187454       1
       8374.2189       27.911369       69.234731       1
       8386.3604       3.4685288       54.007476       1
       8398.5018      -2.6687156       66.597648       1
       8410.6432      -14.503555       55.443969       1
       8422.7847       21.715582       64.988443       1
       8434.9261       18.270953       51.105608       1
       8447.0676       37.428566       64.467113       1
       8459.2090       24.701022       52.101125       1
       8471.3504       13.680663       61.485461       1
       8483.4919      -28.939331       47.547699       1
       8495.6333       18.874524       59.281693       1
       8507.7748       18.945439       51.321411       1
       8519.9162       5.4941570       57.827604       1
       8532.0576       26.841228       46.474278       1
       8544.1991      -4.7443369       57.220408       1
       8556.3405      0.12269644       45.056565       1
       8568.4820      -30.565025       55.837267       1
       8580.6234       16.408533       44.964047       1
       8592.7648       19.337243       55.944570       1
       8604.9063       22.961452       44.757748       1
       8617.0477      -18.203605       55.968539       1
       8629.1892       26.432642       44.577470       1
       8641.3306       20.903555       55.727968       1
       8653.4720       12.894550       44.117116       1
       8665.6135       20.672226       54.508943       1
       8677.7549       5.7976198       43.165501       1
       8689.8964       66.304715       52.989163       1
       8702.0378      -2.2577854       44.025062       1
       8714.1792       11.080233       50.299341       1
       8726.3207       4.7443676       42.098727       1
       8738.4621       8.1310449       49.525311       1
       8750.6036      -13.794892       38.303750       1
       8762.7450       10.094490       47.535738       1
       8774.8864       43.380899       38.001803       1
       8787.0279      -6.0570593       53.200420       1
       8799.1693     0.072882128       36.841845       1
       8811.3108       25.874225       50.571701       1
       8823.4522       4.0200990       36.478097       1
       8835.5936       14.195798       50.270832       1
       8847.7351       8.2415742       35.521472       1
       8859.8765       14.248587       43.974297       1
       8872.0180       10.261248       34.799996       1
       8884.1594       18.214874       43.190907       1
       8896.3009       16.415389       34.670695       1
       8908.4423       22.952792       42.830777       1
       8920.5837       23.891505       34.273937       1
       8932.7252       42.018575       43.439080       1
       8944.8666       23.421815       33.379243       1
       8957.0081       4.0672345       41.234120       1
       8969.1495       26.962228       32.698492       1
       8981.2909       43.852822       40.644655       1
       8993.4324      0.64937724       36.033624       1
       9005.5738      -10.963969       40.023980       1
       9017.7153       26.840317       31.676658       1
       9029.8567      -7.1663066       45.016211       1
       9041.9981       23.166420       32.397771       1
       9054.1396      -13.105511       43.570097       1
       9066.2810      -2.5166926       35.038617       1
       9078.4225       40.943962       38.394121       1
       9090.5639      -3.1636601       30.557103       1
       9102.7053       4.5891543       37.926270       1
       9114.8468       11.219870       31.751651       1
       9126.9882      -1.6925656       36.676994       1
       9139.1297       19.783608       29.531594       1
       9151.2711      0.22152415       36.439012       1
       9163.4125       22.635527       29.067944       1
       9175.5540       33.896347       36.024196       1
       9187.6954       18.363505       28.313876       1
       9199.8369       19.765641       35.237618       1
       9211.9783       10.716052       27.541356       1
       9224.1197      -21.103395       34.774816       1
       9236.2612       6.0392779       27.349449       1
       9248.4026      -3.3464733       34.078168       1
       9260.5441       20.042233       27.292954       1
       9272.6855       22.271058       33.944635       1
       9284.8269       9.7959989       26.950132       1
       9296.9684      -5.7819208       33.869068       1
       9309.1098       21.538955       28.045491       1
       9321.2513      -3.1150303       33.477797       1
       9333.3927       3.2672451       26.464981       1
       9345.5341       27.092078       33.186239       1
       9357.6756       9.4375169       27.709015       1
       9369.8170       17.590994       32.478074       1
       9381.9585       4.0865037       25.839642       1
       9394.0999       31.089255       32.679496       1
       9406.2414       23.031686       25.502045       1
       9418.3828       24.060591       32.403076       1
       9430.5242       28.282019       25.479304       1
       9442.6657       10.697535       31.694788       1
       9454.8071       15.387801       24.890897       1
       9466.9486       24.987119       33.330392       1
       9479.0900       11.336532       25.657616       1
       9491.2314       32.504493       37.104980       1
       9503.3729       6.8768539       24.681333       1
       9515.5143       11.493512       30.748783       1
       9527.6558       21.938339       24.539250       1
       9539.7972       26.860045       30.770503       1
       9551.9386       35.424915       24.416263       1
       9564.0801       28.306524       29.984179       1
       9576.2215       15.727843       28.241413       1
       9588.3630       13.185805       33.489395       1
       9600.5044       15.779789       24.539049       1
       9612.6458       15.964735       29.503203       1
       9624.7873       19.157278       23.466529       1
       9636.9287       14.390489       29.304964       1
       9649.0702       25.370080       23.495215       1
       9661.2116       28.077285       34.203691       1
       9673.3530       29.021624       24.053546       1
       9685.4945       9.8102431       29.142141       1
       9697.6359       10.632042       24.004969       1
       9709.7774       18.356839       28.843753       1
       9721.9188       8.2007229       22.966702       1
       9734.0602      -19.449437       34.367745       1
       9746.2017       21.458367       22.839611       1
       9758.3431       2.7912447       28.588287       1
       9770.4846      -7.1810566       23.528708       1
       9782.6260       9.0467642       28.458343       1
       9794.7674       15.780522       22.638295       1
       9806.9089      -1.7701000       27.945823       1
       9819.0503       18.577796       22.470284       1
       9831.1918       12.324090       27.897527       1
       9843.3332       9.8947512       22.374860       1
       9855.4746       17.706404       28.123749       1
       9867.6161       8.6146938       22.196114       1
       9879.7575      -2.7777712       27.903319       1
       9891.8990       17.403403       22.139941       1
       9904.0404       21.987042       27.921288       1
       9916.1819       19.887407       23.909996       1
       9928.3233       2.0721247       27.445081       1
       9940.4647       6.7276560       21.895215       1
       9952.6062     -0.71414528       27.141854       1
       9964.7476       11.986885       21.666749       1
       9976.8891       18.053314       26.983998       1
       9989.0305       1.0949696       21.373086       1
       10001.172       31.984870       26.787517       1
       10013.313       16.550909       21.097784       1
       10025.455       18.806942       26.475245       1
       10037.596       18.156257       21.080065       1
       10049.738       9.6787303       26.493357       1
       10061.879      0.36129379       20.983750       1
       10074.021       15.152603       26.387217       1
       10086.162      -4.3513564       21.232085       1
       10098.303       18.519079       26.599537       1
       10110.445       14.075984       21.104377       1
       10122.586       16.768310       26.370292       1
       10134.728       24.060943       21.010721       1
       10146.869       24.285458       26.064262       1
       10159.011       12.304801       20.728817       1
       10171.152       4.0059864       25.768967       1
       10183.294       14.272210       20.632638       1
       10195.435       8.4665825       25.378455       1
       10207.576       16.073627       20.570269       1
       10219.718       21.618727       25.610303       1
       10231.859       20.124999       20.659793       1
       10244.001       20.471798       28.558331       1
       10256.142      -2.8852938       20.069427       1
       10268.284       22.738922       30.010846       1
       10280.425       12.617955       19.931998       1
       10292.567       28.935475       28.556925       1
       10304.708       2.2910023       19.719889       1
       10316.849      0.41216770       24.657660       1
       10328.991       12.269490       19.715854       1
       10341.132      0.11010558       24.619532       1
       10353.274      -7.0757006       19.473613       1
       10365.415       7.7522805       24.684484       1
       10377.557       6.0927427       19.737475       1
       10389.698       3.7759192       24.509964       1
       10401.839      -7.3950161       21.828407       1
       10413.981       4.6475152       24.419079       1
       10426.122       15.681456       19.550745       1
       10438.264       16.873700       24.297358       1
       10450.405       21.878298       21.428055       1
       10462.547       5.8899674       24.371784       1
       10474.688       18.082347       19.530718       1
       10486.830       19.964516       24.439259       1
       10498.971       11.170027       19.525565       1
       10511.112       17.891764       28.936412       1
       10523.254       7.6417317       19.573270       1
       10535.395       26.081931       24.506559       1
       10547.537       4.8910784       19.556283       1
       10559.678       12.625723       24.340941       1
       10571.820       15.058530       20.343580       1
       10583.961       13.528127       24.228709       1
       10596.103       15.364233       19.359883       1
       10608.244       9.6533030       24.287063       1
       10620.385       14.380969       19.346236       1
       10632.527       13.539404       24.070423       1
       10644.668       2.8343844       19.785323       1
       10656.810       1.4122586       23.770951       1
       10668.951       10.283850       19.027618       1
       10681.093       28.703108       23.849090       1
       10693.234       3.1508698       19.547991       1
       10705.375      -6.1330573       26.703197       1
       10717.517       10.412424       18.927119       1
       10729.658       20.609761       23.768615       1
       10741.800       8.1895438       18.849832       1
       10753.941       12.425593       23.533747       1
       10766.083       6.0096909       18.969068       1
       10778.224       8.0789374       23.528400       1
       10790.366       2.2687459       18.829413       1
       10802.507       7.8063257       23.491868       1
       10814.648       5.4361937       18.848860       1
       10826.790       11.597649       23.507694       1
       10838.931     -0.46906344       18.665126       1
       10851.073       2.4719927       23.248070       1
       10863.214       15.809339       18.686113       1
       10875.356      -3.5834935       23.317820       1
       10887.497       6.7775324       18.525659       1
       10899.639       11.654091       23.292460       1
       10911.780       1.7139192       18.486807       1
       10923.921       16.751636       23.216514       1
       10936.063       10.037872       18.771456       1
       10948.204       6.2428619       23.148796       1
       10960.346       4.1208313       18.569073       1
       10972.487       5.3932428       23.372128       1
       10984.629       14.472374       18.594941       1
       10996.770       10.142452       23.114210       1
       11008.911       13.527395       18.511033       1
       11021.053       10.206933       23.255524       1
       11033.194       10.112212       18.362453       1
       11045.336       5.1931635       23.052740       1
       11057.477       17.562045       18.369247       1
       11069.619       14.028694       27.466276       1
       11081.760       17.517882       18.346769       1
       11093.902       16.299789       22.992683       1
       11106.043     -0.12145014       18.302932       1
       11118.184       19.435191       23.212545       1
       11130.326       1.0994557       18.303719       1
       11142.467       8.3522768       23.108317       1
       11154.609       3.3692320       18.366127       1
       11166.750      -9.8149793       23.043370       1
       11178.892       13.407953       18.395594       1
       11191.033       29.394628       24.407752       1
       11203.175       11.459062       18.344506       0
       11215.316       13.445325       22.983269       0
       11227.457      0.47099425       18.295519       0
       11239.599       3.3706397       22.932718       0
       11251.740      0.60112786       18.837776       0
       11263.882      0.79747044       22.813761       0
       11276.023      -6.0110768       18.234043       0
       11288.165       7.7527604       22.878282       0
       11300.306      0.54910689       18.303970       0
       11312.448      -9.4751627       23.047890       0
       11324.589       10.243047       18.801006       0
       11336.730       3.2649168       24.184654       0
       11348.872      -1.2397587       19.967381       0
       11361.013       22.470322       26.708281       0
       11373.155       1.3133266       22.630268       0
       11385.296       22.821230       31.007506       0
       11397.438       9.0038549       27.200923       0
       11409.579      -23.090109       38.133074       0
       11421.720       3.4673752       34.430670       0
       11433.862       16.076429       49.466863       0
       11446.003       34.111214       44.865474       0
       11458.145      -68.280682       62.971748       0
       11470.286       3.0450833       56.824036       0
       11482.428      -20.207553       79.259950       0
       11494.569    -0.071302304       69.692567       0
       11506.711       55.903777       97.387442       0
       11518.852       45.580597       87.621777       0
       11530.993      -56.447434       124.53402       0
       11543.135      -18.109248       117.99372       0
       11555.276      -137.26182       176.07614       0
       11567.418      -2.4035759       173.96742       0
       11579.559      -2.5030557       294.36062       0
       11591.701      -29.219777       265.92934       0
       11603.842      -370.61809       409.31751       0
       11615.984      -84.613059       404.43299       0
       11628.125      -206.88762       612.36546       0
       11640.266      -226.91127       591.61136       0
       11652.408      -490.93420       905.21375       0
       11664.549      -538.76645       930.85654       0
       11676.691       931.79026       1528.5791       0
       11688.832      -1240.2081       1567.1649       0
       11700.974      -721.78768       2585.8260       0
       11713.115      -373.08787       2719.4202       0
       11725.256       2588.6691       4174.7887       0
       11737.398      -1664.7659       3656.3865       0
       11749.539      -2292.7954       4737.3138       0
       11761.681       412.74600       3711.3989       0
       11773.822      -1695.0463       4504.9178       0
       11785.964      -1423.8549       3488.6136       0
       11798.105      -2744.3803       4476.4530       0
       11810.247      -1131.0298       4127.5465       0
       11822.388      -391.78434       5422.3963       0
       11834.529      -461.92769       5034.4819       0
       11846.671      -6036.1684       7408.5905       0
       11858.812      -1357.3161       7727.7371       0
