#WAVELENGTH FLUX ERROR MASK
       10250.013      -200.07095       2336.6866       0
       10273.259      -1624.9922       1805.4930       0
       10296.504       1098.8274       1766.9543       0
       10319.750       989.46396       1527.5501       0
       10342.996      -536.16101       1361.1591       0
       10366.242       859.49730       1247.0820       0
       10389.488      -671.74878       1132.8035       0
       10412.734       590.74998       1032.1889       0
       10435.980       524.74641       926.13186       0
       10459.226       544.57266       788.93998       0
       10482.472      -73.899052       676.28924       0
       10505.718      -192.01011   1.5690600e+08       0
       10528.964       115.77715       478.76497       0
       10552.210      -81.940894       397.11003       0
       10575.456      -111.00153       338.06917       0
       10598.702       73.111932       309.52354       0
       10621.948       26.757854       270.83484       0
       10645.194       42.742190       249.11170       0
       10668.440       167.27567       218.17059       0
       10691.686       169.45078       193.84040       0
       10714.932       174.24788       161.77483       0
       10738.178       192.26944       137.88208       0
       10761.424       61.731099       110.59173       0
       10784.670       29.321912       94.324078       0
       10807.916       121.75419       79.141933       0
       10831.162       55.608671       63.076737       0
       10854.408       92.497768       60.367346       0
       10877.654       68.203554       55.554429       0
       10900.900       50.984978       50.709533       0
       10924.146       120.00568       48.054764       0
       10947.392       52.385565       43.782238       0
       10970.638       83.217811       41.523779       0
       10993.884       83.315085       37.975607       0
       11017.130       90.529698       36.218483       1
       11040.376       74.842976       32.874778       1
       11063.622       83.957803       31.813812       1
       11086.868       88.602022       29.433678       1
       11110.114       80.638615       28.646368       1
       11133.360       74.989280       27.073280       1
       11156.606       66.110433       26.905848       1
       11179.852       93.212744       26.050108       1
       11203.098       54.186601       25.805770       1
       11226.344       79.268422       25.147356       1
       11249.590       80.637025       25.456458       1
       11272.836       72.986548       24.455153       1
       11296.082       78.200647       24.964961       1
       11319.328       74.230211       24.106588       1
       11342.573       74.852478       24.137686       1
       11365.819       76.437790       23.605147       1
       11389.065       53.247605       21.775927       1
       11412.311       88.524910       23.300476       1
       11435.557       71.735218       23.419390       1
       11458.803       86.033173       22.884854       1
       11482.049       71.654127       23.135700       1
       11505.295       69.966760       22.386325       1
       11528.541       77.846180       23.953871       1
       11551.787       72.566284       22.493138       1
       11575.033       87.817299       23.784061       1
       11598.279       74.959020       22.228275       1
       11621.525       47.131631       21.585574       1
       11644.771       80.044857       21.858162       1
       11668.017       80.555102       23.059291       1
       11691.263       87.901608       21.530066       1
       11714.509       69.242873       21.492445       1
       11737.755       74.549647       21.097725       1
       11761.001       71.449730       21.018472       1
       11784.247       81.511831       20.484858       1
       11807.493       71.887018       20.587582       1
       11830.739       79.935095       20.030765       1
       11853.985       56.798891       18.336716       1
       11877.231       71.120893       19.550249       1
       11900.477       65.203421       19.829682       1
       11923.723       84.828690       19.472103       1
       11946.969       66.505463       19.488182       1
       11970.215       79.059285       19.219022       1
       11993.461       75.888677       19.448995       1
       12016.707       83.846751       18.819380       1
       12039.953       79.985400       19.147773       1
       12063.199       96.327013       18.692792       1
       12086.445       69.337759       18.790984       1
       12109.691       71.838886       18.204738       1
       12132.937       73.543277       18.578205       1
       12156.183       71.056690       18.071799       1
       12179.429       88.819819       18.584602       1
       12202.675       78.101574       17.885156       1
       12225.921       84.146967       18.257959       1
       12249.167       69.269016       17.598611       1
       12272.413       77.959080       18.031773       1
       12295.659       81.115040       17.491939       1
       12318.905       76.271466       17.836392       1
       12342.151       73.309982       17.261485       1
       12365.397       77.675041       17.607221       1
       12388.643       68.167794       17.006719       1
       12411.888       73.956428       17.479304       1
       12435.134       66.480917       16.890002       1
       12458.380       75.394929       18.248492       1
       12481.626       76.447790       16.877967       1
       12504.872       75.065152       17.235521       1
       12528.118       72.961737       16.729345       1
       12551.364       68.974701       17.055051       1
       12574.610       74.085254       16.538483       1
       12597.856       65.883874       15.600073       1
       12621.102       73.281371       16.516601       1
       12644.348       65.088520       16.760979       1
       12667.594       51.148100       14.609318       1
       12690.840       68.434934       16.757015       1
       12714.086       72.980920       16.275816       1
       12737.332       66.367000       16.500004       1
       12760.578       69.931244       16.936725       1
       12783.824       69.022784       16.722860       1
       12807.070       69.639473       16.711736       1
       12830.316       72.021333       16.579811       1
       12853.562       62.887051       16.562682       1
       12876.808       74.108391       16.592912       1
       12900.054       68.582026       16.945971       1
       12923.300       70.556556       16.383615       1
       12946.546       86.851199       16.496085       1
       12969.792       76.685898       16.285653       1
       12993.038       70.621643       15.962916       1
       13016.284       79.311354       16.042651       1
       13039.530       85.214984       16.116713       1
       13062.776       53.220102       14.248110       1
       13086.022       80.968907       15.881871       1
       13109.268       68.427585       14.399049       1
       13132.514       74.618493       15.694070       1
       13155.760       86.239952       15.676870       1
       13179.006       81.453928       15.823386       1
       13202.252       89.526894       15.466886       1
       13225.498       76.968318       15.342013       1
       13248.744       77.664831       15.237806       1
       13271.990       85.765074       15.249799       1
       13295.236       84.871587       15.141645       1
       13318.482       86.769307       15.136146       1
       13341.728       85.749859       15.096601       1
       13364.974       73.994815       14.947319       1
       13388.220       76.228241       14.847413       1
       13411.466       69.787708       15.185991       1
       13434.712       80.882981       14.718513       1
       13457.957       78.477486       14.621569       1
       13481.203       72.204240       14.465023       1
       13504.449       82.857020       14.582386       1
       13527.695       66.932303       14.288316       1
       13550.941       72.919491       14.420400       1
       13574.187       70.096035       14.310302       1
       13597.433       64.046726       14.272701       1
       13620.679       76.630237       14.345189       1
       13643.925       68.241286       14.310634       1
       13667.171       74.605565       14.300945       1
       13690.417       66.488749       14.283889       1
       13713.663       71.826299       14.310323       1
       13736.909       74.811186       14.364826       1
       13760.155       62.009020       14.183869       1
       13783.401       65.724761       14.681293       1
       13806.647       62.807770       14.832433       1
       13829.893       68.816998       14.545418       1
       13853.139       67.482610       14.178170       1
       13876.385       62.023272       14.211665       1
       13899.631       74.474132       14.212599       1
       13922.877       62.123145       14.333362       1
       13946.123       72.459566       14.567552       1
       13969.369       67.602905       14.312166       1
       13992.615       64.293096       13.914955       1
       14015.861       71.884386       14.057590       1
       14039.107       71.846285       13.890442       1
       14062.353       69.186379       14.066054       1
       14085.599       68.701068       13.670229       1
       14108.845       74.106742       13.738145       1
       14132.091       67.599011       13.605563       1
       14155.337       63.849469       13.582311       1
       14178.583       69.929988       13.581388       1
       14201.829       55.828336       13.656264       1
       14225.075       65.610768       13.444950       1
       14248.321       68.431017       13.507722       1
       14271.567       67.142532       13.401077       1
       14294.813       65.874255       13.340772       1
       14318.059       55.133368       13.128309       1
       14341.305       73.676072       13.366317       1
       14364.551       59.095398       13.069339       1
       14387.797       68.416798       13.253303       1
       14411.043       67.392212       13.030638       1
       14434.289       60.789882       13.168410       1
       14457.535       67.691125       13.075206       1
       14480.781       66.696071       13.205901       1
       14504.027       64.297057       12.966171       1
       14527.272       65.241372       13.175735       1
       14550.518       64.695444       13.012371       1
       14573.764       66.774628       13.380372       1
       14597.010       72.952395       13.049578       1
       14620.256       68.768983       13.222571       1
       14643.502       68.648616       13.038412       1
       14666.748       69.889931       13.176026       1
       14689.994       55.142104       11.906051       1
       14713.240       70.179035       13.245743       1
       14736.486       69.679970       13.025711       1
       14759.732       63.131862       13.178346       1
       14782.978       73.394134       13.118160       1
       14806.224       58.557891       13.302275       1
       14829.470       65.071826       3645150.4       1
       14852.716       67.756335       13.206835       1
       14875.962       73.352703       12.981820       1
       14899.208       67.638884       13.086641       1
       14922.454       63.149619       12.835224       1
       14945.700       57.079349       13.046248       1
       14968.946       78.867505       12.887563       1
       14992.192       63.613740       12.138878       1
       15015.438       70.323158       12.339598       1
       15038.684       61.270155       12.082775       1
       15061.930       58.377359       12.231548       1
       15085.176       71.657275       12.218295       1
       15108.422       66.878116       12.412777       1
       15131.668       65.772232       12.000653       1
       15154.914       68.024334       12.380956       1
       15178.160       60.985352       11.982541       1
       15201.406       61.791913       12.253559       1
       15224.652       67.619960       12.263991       1
       15247.898       68.836921       12.333925       1
       15271.144       65.596167       11.986887       1
       15294.390       49.507703       11.259670       1
       15317.636       53.132754       12.126673       1
       15340.882       72.129157       12.345281       1
       15364.128       71.257574       12.193145       1
       15387.374       74.516902       12.393398       1
       15410.620       69.403124       12.024129       1
       15433.866       60.752847       12.316980       1
       15457.112       63.315943       11.904911       1
       15480.358       64.141109       12.290573       1
       15503.604       64.307539       12.135558       1
       15526.850       64.204528       12.331361       1
       15550.096       63.611990       11.929960       1
       15573.341       65.289601       12.368963       1
       15596.587       59.889014       12.182042       1
       15619.833       67.723784       12.404680       1
       15643.079       70.186434       11.940978       1
       15666.325       76.224033       12.459374       1
       15689.571       76.675800       3518304.4       1
       15712.817       73.452832       12.404412       1
       15736.063       67.856790       12.118540       1
       15759.309       76.843699       12.308139       1
       15782.555       83.361404       12.042854       1
       15805.801       84.591396       12.370186       1
       15829.047       78.088173       11.971927       1
       15852.293       71.386423       12.204616       1
       15875.539       73.673338       12.078963       1
       15898.785       79.681282       12.366959       1
       15922.031       54.071888       10.950398       1
       15945.277       60.987634       12.119809       1
       15968.523       59.921310       11.822352       1
       15991.769       57.692724       12.190140       1
       16015.015       67.036422       11.895653       1
       16038.261       57.920777       12.156192       1
       16061.507       61.346560       11.950351       1
       16084.753       66.643507       12.284614       1
       16107.999       58.239696       11.780043       1
       16131.245       56.661638       12.169409       1
       16154.491       68.820135       12.034112       1
       16177.737       62.357674       12.305414       1
       16200.983       54.922671       11.956787       1
       16224.229       63.015554       12.311489       1
       16247.475       60.509084       12.344615       1
       16270.721       69.042987       12.626835       1
       16293.967       64.045877       12.246698       1
       16317.213       56.398488       12.696067       1
       16340.459       60.251088       12.260393       1
       16363.705       59.112478       12.568135       1
       16386.951       64.014068       12.343059       1
       16410.197       61.432156       12.603301       1
       16433.443       59.676890       12.294079       1
       16456.689       63.884624       12.651277       1
       16479.935       55.946793       12.341212       1
       16503.181       60.566934       12.869013       1
       16526.427       61.313405       12.747811       1
       16549.673       61.800398       13.332194       1
       16572.919       55.437042       13.277180       1
       16596.165       60.703304       14.252325       1
       16619.411       52.185682       14.519385       1
       16642.656       58.021036       15.875679       1
       16665.902       57.962156       16.586966       1
       16689.148       51.259168       18.366169       1
       16712.394       44.002351       20.081879       1
       16735.640       57.598920       22.641585       1
       16758.886       58.939333       24.778619       0
       16782.132       54.264505       28.794384       0
       16805.378       74.298041       32.056480       0
       16828.624       37.152738       37.128425       0
       16851.870       57.247548       41.367450       0
       16875.116       46.770389       14397251.       0
       16898.362       58.941276       52.441507       0
       16921.608       75.760932       59.909700       0
       16944.854       62.020331       65.466788       0
       16968.100       30.861731       74.352644       0
       16991.346       49.767494       81.291783       0
       17014.592       63.141853       93.108226       0
       17037.838       63.802725       101.30305       0
       17061.084       54.916450       115.18085       0
       17084.330       76.862732       124.60769       0
       17107.576       67.263997       142.65448       0
       17130.822      -8.7353016       157.41611       0
       17154.068       35.044007       180.29982       0
       17177.314      -93.875604       201.24668       0
       17200.560      -42.234541       245.75258       0
       17223.806       41.498989       285.44440       0
       17247.052       12.468450       323.86384       0
       17270.298      -192.35771       369.29290       0
       17293.544      -234.63930       406.39951       0
       17316.790      -180.39480       455.88504       0
       17340.036       105.11995   1.4804470e+08       0
       17363.282      -638.91636       546.98353       0
       17386.528       122.89699       635.46511       0
       17409.774      -350.85811       685.20870       0
       17433.020       87.511734       754.58577       0
       17456.266       22.150942       820.78693       0
       17479.512      -766.97073       896.35648       0
