#WAVELENGTH FLUX ERROR MASK
       7484.5347       7592.3674       21592.315       0
       7496.4470      -7200.9184       27365.610       0
       7508.3594       11651.989       16015.199       0
       7520.2717      -17756.957       19527.756       0
       7532.1840      -1104.9391       11640.221       0
       7544.0964      -10600.177       13780.896       0
       7556.0087      -938.08635       7491.1329       0
       7567.9210      -7747.2145       8973.9091       0
       7579.8334      -753.15945       4727.0812       0
       7591.7457      -3946.0251       5875.5388       0
       7603.6580      -1608.5579       3216.7971       0
       7615.5704      -2255.9021       4169.6347       0
       7627.4827       1298.0653       2376.4814       0
       7639.3950      -1859.6981       3115.1660       0
       7651.3074      -19.491102       1764.1050       0
       7663.2197      -1285.5231       2299.9635       0
       7675.1320       128.51428       1256.4764       0
       7687.0444      -596.00772       1619.6704       0
       7698.9567      -87.252299       884.46373       0
       7710.8690      -330.53603       1171.5605       0
       7722.7813       88.589980       665.44709       0
       7734.6937      -569.04435       908.44254       0
       7746.6060      -145.48093       589.40571       0
       7758.5183      -544.45615       795.39948       0
       7770.4307       47.138271       460.64993       0
       7782.3430      -280.76479       678.91463       0
       7794.2553      -180.26182       386.20086       0
       7806.1677      -221.23201       548.57078       0
       7818.0800      -26.057152       317.17381       0
       7829.9923      -186.74291       443.93925       0
       7841.9047      -84.085193       254.90229       0
       7853.8170      -332.73537       361.09986       0
       7865.7293       34.037289       211.59179       0
       7877.6417      -141.17038       301.17648       0
       7889.5540       12.049338       179.80625       0
       7901.4663      -79.963166       230.91865       0
       7913.3787       22.899374       164.59098       0
       7925.2910      -166.62103       235.67372       0
       7937.2033       68.565814       144.82234       0
       7949.1157      -113.23574       206.64216       0
       7961.0280       26.324407       132.05052       0
       7972.9403      -125.47237       198.42467       0
       7984.8526      -51.181744       132.83317       0
       7996.7650       16.947744       185.76850       0
       8008.6773       62.232945       113.84801       0
       8020.5896       4.7805535       174.55203       0
       8032.5020       17.604539       117.94830       0
       8044.4143      -106.85626       177.83021       0
       8056.3266      -6.8119844       106.15428       0
       8068.2390      -77.778495       170.37815       0
       8080.1513       44.836266       106.63816       0
       8092.0636       4.2638725       160.36078       0
       8103.9760       19.199663       98.266035       0
       8115.8883      -25.534648       150.03950       0
       8127.8006       9.8813959       94.885595       0
       8139.7130      -15.056282       144.30416       0
       8151.6253       66.499303       91.947414       1
       8163.5376      -1.3827188       138.33579       1
       8175.4500       39.758074       88.614048       1
       8187.3623      -29.778571       133.47163       1
       8199.2746       29.346020       85.159455       1
       8211.1870      -84.903349       126.90903       1
       8223.0993       65.862859       81.924778       1
       8235.0116       10.311108       121.15991       1
       8246.9239       42.679341       77.740928       1
       8258.8363       19.442482       107.39727       1
       8270.7486       22.432709       73.929849       1
       8282.6609      -15.454602       109.83061       1
       8294.5733       22.218125       70.482426       1
       8306.4856       73.006088       103.91670       1
       8318.3979       72.732033       68.151598       1
       8330.3103      -12.521604       96.984995       1
       8342.2226       70.774399       66.233608       1
       8354.1349      -13.408319       98.183275       1
       8366.0473       6.1555569       65.050384       1
       8377.9596       32.462107       94.790790       1
       8389.8719       38.885615       62.459664       1
       8401.7843       25.921024       92.453640       1
       8413.6966      -22.228233       75.473676       1
       8425.6089       40.548301       95.659983       1
       8437.5213       36.878065       60.292662       1
       8449.4336       50.892156       77.539004       1
       8461.3459       18.197306       56.398240       1
       8473.2583       18.676501       77.169464       1
       8485.1706       49.081982       55.268612       1
       8497.0829       27.028583       71.960832       1
       8508.9952       59.601065       53.720634       1
       8520.9076       13.542504       67.847336       1
       8532.8199       38.760412       54.051068       1
       8544.7322       30.869979       65.942505       1
       8556.6446       15.661288       51.305469       1
       8568.5569       40.528107       64.734945       1
       8580.4692       44.416360       50.993778       1
       8592.3816       31.145090       63.422645       1
       8604.2939       45.124442       52.334560       1
       8616.2062       43.762564       62.481792       1
       8628.1186       18.844461       51.426258       1
       8640.0309       25.599717       61.834803       1
       8651.9432       26.261616       49.389033       1
       8663.8556       53.099976       61.412614       1
       8675.7679       25.045733       48.411188       1
       8687.6802       40.972189       59.667788       1
       8699.5926       27.641270       46.569728       1
       8711.5049       34.983011       57.398517       1
       8723.4172       24.034476       46.501164       1
       8735.3296       49.347189       55.356490       1
       8747.2419       44.310951       43.977584       1
       8759.1542       38.108986       50.514691       1
       8771.0665       27.863216       42.875217       1
       8782.9789       53.532543       52.945333       1
       8794.8912       48.349472       42.212453       1
       8806.8035       62.097039       52.271985       1
       8818.7159       32.840130       41.295305       1
       8830.6282       23.105295       50.612819       1
       8842.5405       22.710582       40.214688       1
       8854.4529       32.871166       49.842972       1
       8866.3652       36.042054       41.043697       1
       8878.2775       36.264616       51.612534       1
       8890.1899       35.126324       40.249154       1
       8902.1022       53.225437       48.212082       1
       8914.0145       49.973612       39.714046       1
       8925.9269       21.982831       47.191706       1
       8937.8392       41.075178       38.867756       1
       8949.7515       63.945223       46.847829       1
       8961.6639       22.100625       36.946401       1
       8973.5762       36.061160       45.549635       1
       8985.4885       57.171774       36.540546       1
       8997.4009       33.436297       44.520758       1
       9009.3132       32.070163       35.690721       1
       9021.2255       58.028890       44.592483       1
       9033.1378       43.089613       35.638157       1
       9045.0502       49.777580       44.282044       1
       9056.9625       32.430831       35.309292       1
       9068.8748       44.683166       43.640126       1
       9080.7872       61.157724       35.062092       1
       9092.6995       30.105507       42.992474       1
       9104.6118       53.175913       34.207959       1
       9116.5242       44.490661       42.055196       1
       9128.4365       29.662497       33.460804       1
       9140.3488       53.679998       41.196462       1
       9152.2612       46.265320       32.853653       1
       9164.1735       47.779402       40.518339       1
       9176.0858       27.675979       32.122213       1
       9187.9982       68.002610       39.881734       1
       9199.9105       41.267855       31.737988       1
       9211.8228       41.860589       38.873637       1
       9223.7352       33.585358       30.995513       1
       9235.6475       43.797113       38.453021       1
       9247.5598       40.034403       30.803907       1
       9259.4722       17.085500       37.689755       1
       9271.3845       38.448256       30.402171       1
       9283.2968       35.189164       37.397769       1
       9295.2091       45.874678       30.175328       1
       9307.1215       41.538883       37.118906       1
       9319.0338       39.436511       29.808573       1
       9330.9461       52.769122       36.823491       1
       9342.8585       49.142499       29.613925       1
       9354.7708       37.785711       36.496721       1
       9366.6831       50.409221       29.394395       1
       9378.5955       43.424861       36.232316       1
       9390.5078       42.897420       29.046948       1
       9402.4201       33.545069       35.509663       1
       9414.3325       31.545557       28.530514       1
       9426.2448       38.229581       35.320684       1
       9438.1571       32.716820       28.212928       1
       9450.0695       41.653434       34.788599       1
       9461.9818       34.792404       27.944315       1
       9473.8941       57.711777       34.670507       1
       9485.8065       39.377930       27.639134       1
       9497.7188       54.739307       34.316396       1
       9509.6311       52.547491       27.414818       1
       9521.5435       44.089761       33.758456       1
       9533.4558       39.095604       27.729557       1
       9545.3681       30.310388       33.195416       1
       9557.2804       32.889766       26.808020       1
       9569.1928       34.890723       32.975185       1
       9581.1051       42.548019       26.580407       1
       9593.0174       44.425357       32.633724       1
       9604.9298       44.620966       26.297670       1
       9616.8421       17.631720       30.332532       1
       9628.7544       40.425658       25.958698       1
       9640.6668       53.490835       34.036180       1
       9652.5791       36.166184       25.806010       1
       9664.4914       40.395544       31.874697       1
       9676.4038       36.686219       25.562892       1
       9688.3161       29.796919       31.408277       1
       9700.2284       19.989068       25.231122       1
       9712.1408       32.390959       31.255790       1
       9724.0531       35.941561       25.197108       1
       9735.9654       39.544722       31.058666       1
       9747.8778       36.862920       24.927872       1
       9759.7901       37.939571       30.709597       1
       9771.7024       31.839502       24.624355       1
       9783.6148       47.105700       30.567648       1
       9795.5271       46.521388       24.578361       1
       9807.4394       42.249432       30.355193       1
       9819.3517       34.185069       24.422719       1
       9831.2641       6.7619253       28.178350       1
       9843.1764       36.142183       24.320614       1
       9855.0887       26.379041       8280754.7       1
       9867.0011       22.689883       24.090545       1
       9878.9134       51.063642       30.110081       1
       9890.8257       37.929908       24.132731       1
       9902.7381       41.878494       29.933330       1
       9914.6504       38.106006       24.067392       1
       9926.5627       42.100745       8164766.7       1
       9938.4751       36.518378       23.853504       1
       9950.3874       36.842750       29.375315       1
       9962.2997       43.981698       23.645608       1
       9974.2121       25.012291       27.213757       1
       9986.1244       39.968697       23.278083       1
       9998.0367       36.493641       28.598806       1
       10009.949       43.196648       23.853861       1
       10021.861       48.337076       28.448501       1
       10033.774       34.322918       22.769532       1
       10045.686       50.626508       28.333722       1
       10057.598       37.953821       25.310096       1
       10069.511       46.182962       28.309638       1
       10081.423       44.305680       22.789648       1
       10093.335       42.236595       28.227644       1
       10105.248       34.386390       23.440462       1
       10117.160       29.947921       27.923926       1
       10129.072       43.444831       22.617733       1
       10140.985       39.588466       27.877567       1
       10152.897       33.263819       22.452374       1
       10164.809       48.298013       27.987337       1
       10176.722       37.139230       22.304485       1
       10188.634       35.599844       27.600573       1
       10200.546       49.496023       22.254621       1
       10212.459       43.183639       27.470799       1
       10224.371       47.920337       22.068220       1
       10236.283       33.289734       27.111046       1
       10248.196       40.655585       23.103422       1
       10260.108       27.655848       26.754410       1
       10272.020       31.277261       22.157029       1
       10283.933       37.017610       26.597449       1
       10295.845       39.175909       21.250380       1
       10307.757       31.345152       24.767105       1
       10319.670       25.313196       20.971150       1
       10331.582       42.763962       27.628679       1
       10343.494       28.678966       21.006031       1
       10355.407       35.645866       26.011864       1
       10367.319       38.309597       20.979201       1
       10379.231       30.822740       26.005860       1
       10391.144       30.454693       23.049191       1
       10403.056       40.390812       26.059195       1
       10414.968       35.884304       20.863517       1
       10426.881       33.159101       25.767138       1
       10438.793       30.964066       20.693446       1
       10450.705       28.592436       25.688450       1
       10462.618       24.784741       20.641485       1
       10474.530       41.128801       25.810637       1
       10486.442       47.194888       20.784381       1
       10498.355       32.040921       25.726385       1
       10510.267       33.529679       20.624102       1
       10522.179       29.601736       25.617508       1
       10534.092       31.874713       20.608588       1
       10546.004       50.150990       25.881553       1
       10557.916       46.975202       22.748467       1
       10569.829       55.500968       25.910934       1
       10581.741       38.925620       21.289163       1
       10593.653       53.805698       25.664197       1
       10605.566       33.656382       20.789243       1
       10617.478       36.291260       25.342474       1
       10629.390       36.847690       20.244119       1
       10641.303       43.701815       25.119837       1
       10653.215       38.394584       20.070904       1
       10665.127       40.676790       24.797086       1
       10677.040       35.433048       19.871813       1
       10688.952       35.873040       24.693978       1
       10700.864       38.078795       19.931435       1
       10712.777       43.644447       24.819478       1
       10724.689       54.002328       19.997916       1
       10736.601       39.349220       24.689352       1
       10748.514       41.070139       19.871132       1
       10760.426       46.008256       24.693466       1
       10772.338       34.603316       19.754342       1
       10784.251       32.472365       24.497113       1
       10796.163       39.826386       19.774047       1
       10808.075       48.070530       24.553975       1
       10819.988       41.807437       19.711537       1
       10831.900       38.632772       24.439153       1
       10843.812       52.012296       19.678964       1
       10855.725       53.832724       24.451673       1
       10867.637       34.768888       19.472000       1
       10879.549       28.785653       24.042857       1
       10891.462       33.466024       19.342171       1
       10903.374       38.552723       22.703922       1
       10915.286       55.053352       21.557796       1
       10927.199       35.152309       25.381028       1
       10939.111       41.063348       19.378053       1
       10951.023       43.407644       23.908152       1
       10962.936       35.420673       19.300795       1
       10974.848       59.229417       24.366360       1
       10986.760       43.106935       21.371076       1
       10998.673       32.563739       24.085110       1
       11010.585       39.182606       19.310844       1
       11022.497       41.000910       24.038794       1
       11034.410       47.334914       19.309947       1
       11046.322       44.360365       24.017871       1
       11058.234       43.450302       19.270841       1
       11070.147       35.391110       22.477685       1
       11082.059       36.900844       19.275005       1
       11093.971       41.297381       23.976311       1
       11105.884       38.369741       19.260601       1
       11117.796       43.199942       25.323982       1
       11129.708       30.952397       19.221536       1
       11141.621       43.018993       23.964735       1
       11153.533       30.624283       19.214262       1
       11165.445       40.926238       23.976257       1
       11177.358       44.069212       19.987199       1
       11189.270       45.192342       23.896373       1
       11201.182       37.695766       19.121533       0
       11213.095       51.205372       23.915838       0
       11225.007       45.415859       19.219909       0
       11236.919       40.279887       23.763463       0
       11248.832       34.382394       19.659563       0
       11260.744       31.266027       23.670369       0
       11272.656       40.289810       19.251103       0
       11284.569       43.913245       23.846327       0
       11296.481       38.117637       19.189346       0
       11308.393       39.788174       23.885376       0
       11320.306       32.425998       19.336814       0
       11332.218       37.710704       24.469705       0
       11344.130       45.384430       20.984523       0
       11356.043       25.929688       25.990999       0
       11367.955       22.091225       22.123546       0
       11379.867       38.829549       32.744298       0
       11391.780       23.760486       26.685362       0
       11403.692       31.737396       39.053813       0
       11415.604       35.721155       31.869114       0
       11427.517       36.841717       44.430971       0
       11439.429       22.829877       44.747377       0
       11451.341       29.917632       57.207444       0
       11463.254       26.698049       51.836067       0
       11475.166       30.577449       71.984003       0
       11487.078       88.092939       65.059219       0
       11498.991       51.065537       88.616462       0
       11510.903       29.751979       78.781547       0
       11522.815       36.917564       103.31890       0
       11534.728       90.848138       100.66161       0
       11546.640       15.555491       143.98738       0
       11558.552       79.817654       138.40027       0
       11570.465       22.122167       206.02328       0
       11582.377       20.550179       205.77355       0
       11594.289      -133.06161       311.43705       0
       11606.202       132.11308       314.90313       0
       11618.114       7.3352650       474.70397       0
       11630.026       180.87567       466.39187       0
       11641.939      -77.053264       655.98138       0
       11653.851      -135.07036       672.94552       0
       11665.763       191.13765       1049.5916       0
       11677.676       332.42648       1097.7936       0
       11689.588      -285.68123       1753.9557       0
       11701.500       645.77607       1914.6208       0
       11713.413       189.32708       2964.6690       0
       11725.325      -865.17596       3382.4486       0
       11737.237      -397.03284       4422.4115       0
       11749.150       1879.5813       3981.8278       0
       11761.062       2054.0092       4761.6187       0
