#WAVELENGTH FLUX ERROR MASK
       7507.7985      -1778.1287       14128.480       0
       7520.3557      -11073.790       14582.489       0
       7532.9130       1207.5136       10752.685       0
       7545.4702      -2749.8001       10561.402       0
       7558.0274      -2922.0907       6325.2979       0
       7570.5847      -381.31575       6371.3345       0
       7583.1419       471.18775       3959.8030       0
       7595.6991       937.64926       4114.2916       0
       7608.2564       202.86716       2690.3609       0
       7620.8136       1841.4494       2914.2612       0
       7633.3708      -820.76684       1958.6376       0
       7645.9281       532.13892       2153.0908       0
       7658.4853      -313.77637       1436.2224       0
       7671.0426      -464.42869       1514.0644       0
       7683.5998      -235.99994       986.53539       0
       7696.1570       346.93874       1046.1207       0
       7708.7143      -6.5160015       692.98140       0
       7721.2715       22.809901       764.03715       0
       7733.8287      -235.08557       531.85161       0
       7746.3860      -617.83496       617.85064       0
       7758.9432      -323.35871       439.00185       0
       7771.5004       94.436042       573.20424       0
       7784.0577       214.90995       413.69183       0
       7796.6149      -225.46140       429.84902       0
       7809.1722       147.68953       308.30397       0
       7821.7294      -112.76517       348.69790       0
       7834.2866       60.474517       246.38741       0
       7846.8439       176.01327       313.92782       0
       7859.4011      -120.44372       197.96068       0
       7871.9583       12.817399       243.02326       0
       7884.5156      -25.848491       166.30296       0
       7897.0728      -33.007364       208.07009       0
       7909.6300       108.48051       145.95429       0
       7922.1873       19.648425       175.66644       0
       7934.7445       129.99282       137.63232       0
       7947.3018      -30.445872       157.19466       0
       7959.8590       76.786759       118.75950       0
       7972.4162       87.414354       144.80659       0
       7984.9735     -0.25848158       108.61205       0
       7997.5307       46.431754       133.94806       0
       8010.0879      -9.0205594       101.26574       0
       8022.6452      -7.5913353       126.50786       0
       8035.2024       49.427994       96.026792       0
       8047.7596       64.016534       119.26206       0
       8060.3169       103.81948       98.093906       0
       8072.8741       76.169371       115.22579       0
       8085.4314       80.781792       89.348459       0
       8097.9886       28.986350       111.57489       0
       8110.5458       15.066534       89.341646       0
       8123.1031       8.2873222       107.73235       0
       8135.6603       81.659841       82.795592       0
       8148.2175       68.735458       103.42632       0
       8160.7748       47.244776       79.857333       1
       8173.3320       86.652188       100.57532       1
       8185.8892       53.457912       77.207568       1
       8198.4465       79.742527       115.81227       1
       8211.0037       59.712149       75.039867       1
       8223.5610       53.888990       91.809421       1
       8236.1182       30.361074       70.362988       1
       8248.6754       65.319585       88.720383       1
       8261.2327       16.008652       66.542073       1
       8273.7899       38.279199       82.547132       1
       8286.3471       14.334831       63.093822       1
       8298.9044       79.129033       79.498386       1
       8311.4616       95.190686       61.281374       1
       8324.0188       64.176547       75.617518       1
       8336.5761       18.449303       58.296506       1
       8349.1333       35.085416       74.177506       1
       8361.6906       86.604498       57.124234       1
       8374.2478       32.213452       70.898060       1
       8386.8050       38.743564       57.118348       1
       8399.3623       17.446264       68.918467       1
       8411.9195       32.684447       53.614614       1
       8424.4767       51.639390       67.338403       1
       8437.0340       63.824204       52.970458       1
       8449.5912       40.091246       63.252527       1
       8462.1484       61.081886       51.191601       1
       8474.7057       63.169247       61.484761       1
       8487.2629       21.667703       51.130980       1
       8499.8202      -2.2153555       59.733791       1
       8512.3774       82.918786       48.292100       1
       8524.9346       4.5039980       63.641477       1
       8537.4919       47.206771       53.971135       1
       8550.0491       50.235332       57.136133       1
       8562.6063       72.426514       47.791134       1
       8575.1636       30.694701       56.101992       1
       8587.7208       65.555637       46.354462       1
       8600.2780       14.635031       56.316492       1
       8612.8353       92.928869       45.884424       1
       8625.3925       81.570057       56.492190       1
       8637.9498       74.418848       45.574798       1
       8650.5070       113.28672       55.633386       1
       8663.0642       45.266913       44.643498       1
       8675.6215       43.989354       53.997590       1
       8688.1787       62.724067       43.754037       1
       8700.7359       41.255643       52.823572       1
       8713.2932       67.805511       43.585429       1
       8725.8504       81.551256       51.242632       1
       8738.4077       56.593504       40.241241       1
       8750.9649       31.042396       48.974701       1
       8763.5221       72.237264       39.043195       1
       8776.0794       72.254314       57.425852       1
       8788.6366       63.653720       38.702729       1
       8801.1938       43.254944       46.852721       1
       8813.7511       54.976771       37.954498       1
       8826.3083       59.382455       45.740521       1
       8838.8655       59.803641       36.992435       1
       8851.4228       50.304921       44.679191       1
       8863.9800       31.549102       38.183936       1
       8876.5373       91.484154       44.169628       1
       8889.0945       73.572451       35.454757       1
       8901.6517       74.237381       43.051210       1
       8914.2090       62.757227       34.849798       1
       8926.7662       62.949465       42.676688       1
       8939.3234       69.061233       34.355305       1
       8951.8807       31.553517       41.809717       1
       8964.4379       66.258669       34.923928       1
       8976.9951       81.600311       41.227040       1
       8989.5524       57.564561       32.927788       1
       9002.1096       65.677006       40.152113       1
       9014.6669       69.324817       32.457537       1
       9027.2241       104.25672       44.782571       1
       9039.7813       69.614167       32.176879       1
       9052.3386       92.182153       40.201876       1
       9064.8958       92.716317       32.244126       1
       9077.4530       71.653968       39.966166       1
       9090.0103       90.824414       31.876046       1
       9102.5675       67.979185       38.364574       1
       9115.1247       79.081842       31.336074       1
       9127.6820       53.160205       37.574688       1
       9140.2392       61.635520       30.412507       1
       9152.7965       76.627866       37.246958       1
       9165.3537       88.815348       30.089695       1
       9177.9109       65.822094       36.629586       1
       9190.4682       48.674078       29.175108       1
       9203.0254       71.434591       35.534146       1
       9215.5826       75.339844       28.767557       1
       9228.1399       59.799959       34.625387       1
       9240.6971       76.681632       28.329144       1
       9253.2543       76.208261       37.402779       1
       9265.8116       61.922532       27.772506       1
       9278.3688       63.999754       33.510378       1
       9290.9261       67.189021       27.684788       1
       9303.4833       39.959722       40.605299       1
       9316.0405       42.500813       27.059264       1
       9328.5978       85.076786       33.699334       1
       9341.1550       61.119239       26.679086       1
       9353.7122       73.471927       33.826473       1
       9366.2695       80.818596       26.423082       1
       9378.8267       56.838223       37.151828       1
       9391.3839       93.422217       26.360498       1
       9403.9412       70.158260       32.927515       1
       9416.4984       66.645680       25.960353       1
       9429.0557       69.821625       33.084492       1
       9441.6129       66.480529       26.616872       1
       9454.1701       45.843099       31.820822       1
       9466.7274       62.081249       26.449334       1
       9479.2846       67.081109       31.583919       1
       9491.8418       53.384765       24.643406       1
       9504.3991       65.220784       33.268182       1
       9516.9563       85.885006       24.609573       1
       9529.5135       65.297400       34.230377       1
       9542.0708       75.331669       24.301994       1
       9554.6280       87.533477       35.987412       1
       9567.1853       70.538545       23.916040       1
       9579.7425       73.370441       30.511455       1
       9592.2997       74.067554       25.106605       1
       9604.8570       53.979333       30.315781       1
       9617.4142       91.575275       23.612647       1
       9629.9714       64.744318       30.288307       1
       9642.5287       51.712406       23.126062       1
       9655.0859       51.005934       29.313480       1
       9667.6431       72.023558       22.904641       1
       9680.2004       91.463256       29.328387       1
       9692.7576       77.328433       22.782979       1
       9705.3149       77.517196       28.990078       1
       9717.8721       76.768774       23.313801       1
       9730.4293       63.508918       28.822781       1
       9742.9866       62.957732       22.291537       1
       9755.5438       72.160654       28.362146       1
       9768.1010       66.114042       22.055923       1
       9780.6583       61.955265       31.299681       1
       9793.2155       57.609106       21.812204       1
       9805.7727       43.407260       27.811342       1
       9818.3300       70.169982       22.665855       1
       9830.8872       60.709110       27.672521       1
       9843.4445       85.596042       21.621774       1
       9856.0017       49.434774       29.124714       1
       9868.5589       72.585703       22.479495       1
       9881.1162       71.705001       29.048854       1
       9893.6734       91.032951       21.469547       1
       9906.2306       73.067106       27.190100       1
       9918.7879       72.259931       21.401774       1
       9931.3451       45.819670       27.144944       1
       9943.9023       65.404133       21.079188       1
       9956.4596       68.247418       27.059617       1
       9969.0168       53.889386       20.881983       1
       9981.5741       73.467041       27.386522       1
       9994.1313       70.701490       20.842584       1
       10006.689       83.194766       26.554612       1
       10019.246       70.720988       20.652112       1
       10031.803       77.981290       26.301739       1
       10044.360       71.327329       21.151789       1
       10056.917       72.322884       25.879434       1
       10069.475       69.045638       20.474028       1
       10082.032       70.053220       25.822715       1
       10094.589       80.693015       21.099903       1
       10107.146       69.245857       25.610041       1
       10119.704       72.101401       20.046096       1
       10132.261       75.844376       25.836211       1
       10144.818       69.330554       19.989924       1
       10157.375       61.121690       25.446875       1
       10169.933       77.111825       19.897480       1
       10182.490       75.749967       25.282001       1
       10195.047       75.542332       19.792269       1
       10207.604       67.482338       24.399228       1
       10220.162       77.155655       19.889797       1
       10232.719       84.303950       24.371421       1
       10245.276       69.307078       19.695299       1
       10257.833       62.440268       23.942444       1
       10270.390       63.253047       19.553698       1
       10282.948       75.620911       24.187002       1
       10295.505       75.364155       19.407065       1
       10308.062       74.294205       23.799940       1
       10320.619       70.284588       19.141980       1
       10333.177       75.490165       23.471836       1
       10345.734       73.232566       18.936451       1
       10358.291       74.969368       23.114971       1
       10370.848       79.216821       18.823825       1
       10383.406       76.851420       23.017959       1
       10395.963       68.562463       18.657910       1
       10408.520       62.288272       22.974039       1
       10421.077       68.749650       18.626852       1
       10433.635       83.369386       23.020139       1
       10446.192       64.605078       18.560576       1
       10458.749       85.282919       24.286809       1
       10471.306       66.212135       18.573951       1
       10483.864       67.308560       22.824224       1
       10496.421       74.522607       18.546649       1
       10508.978       77.389612       22.618574       1
       10521.535       67.574399       18.484584       1
       10534.092       70.996765       22.614226       1
       10546.650       77.697888       18.443564       1
       10559.207       72.778166       22.593443       1
       10571.764       74.038907       18.455732       1
       10584.321       53.680081       22.481712       1
       10596.879       80.434211       18.495438       1
       10609.436       63.027599       22.577809       1
       10621.993       64.107613       18.423549       1
       10634.550       69.215069       24.316191       1
       10647.108       74.620588       18.408694       1
       10659.665       68.863030       22.969119       1
       10672.222       87.501180       19.261077       1
       10684.779       76.378042       22.389305       1
       10697.337       67.066376       18.052693       1
       10709.894       74.613401       22.023398       1
       10722.451       74.126924       17.864950       1
       10735.008       79.972560       21.874439       1
       10747.565       60.520819       17.687334       1
       10760.123       77.437662       21.761734       1
       10772.680       72.146001       17.713191       1
       10785.237       84.089408       21.796604       1
       10797.794       71.522922       17.678530       1
       10810.352       83.846765       21.718108       1
       10822.909       71.271532       17.840578       1
       10835.466       78.350843       21.683167       1
       10848.023       75.104197       17.677653       1
       10860.581       77.687223       21.599926       1
       10873.138       55.678476       17.448179       1
       10885.695       73.976614       21.563526       1
       10898.252       69.453707       18.292351       1
       10910.810       90.727661       21.632052       1
       10923.367       77.647934       17.485987       1
       10935.924       88.511269       21.534738       1
       10948.481       68.972650       17.331261       1
       10961.038       77.008567       21.311220       1
       10973.596       73.549744       17.257174       1
       10986.153       84.418540       21.512615       1
       10998.710       71.863500       17.263714       1
       11011.267       59.245415       20.873527       1
       11023.825       73.367424       17.198548       1
       11036.382       72.876175       22.466333       1
       11048.939       77.338471       17.423963       1
       11061.496       73.847073       22.346371       1
       11074.054       73.245860       17.441561       1
       11086.611       90.604736       21.260172       1
       11099.168       74.905979       16.973075       1
       11111.725       82.139531       21.649737       1
       11124.283       72.172921       16.895351       1
       11136.840       73.029594       21.638391       1
       11149.397       66.479824       16.763285       1
       11161.954       76.607024       21.658302       1
       11174.512       80.228222       16.972717       1
       11187.069       80.832732       21.429197       1
       11199.626       73.311097       17.324112       1
       11212.183       74.441856       21.856224       0
       11224.740       70.231499       16.909963       0
       11237.298       72.213699       21.607074       0
       11249.855       85.926583       16.969549       0
       11262.412       60.335654       21.388564       0
       11274.969       81.245535       16.913718       0
       11287.527       59.128376       21.422861       0
       11300.084       75.988863       16.826935       0
       11312.641       59.381571       21.695999       0
       11325.198       59.337622       16.737232       0
       11337.756       64.591065       21.318879       0
       11350.313       64.195178       16.741720       0
       11362.870       67.374406       21.344499       0
       11375.427       75.540221       16.851019       0
       11387.985       75.810516       21.429640       0
       11400.542       72.610019       16.806686       0
       11413.099       62.669646       21.259931       0
       11425.656       69.617321       16.867058       0
       11438.213       77.117489       21.916517       0
       11450.771       79.064049       17.545886       0
       11463.328       64.873667       23.196540       0
       11475.885       73.626605       18.859711       0
       11488.442       84.690772       25.721522       0
       11501.000       75.589957       21.518982       0
       11513.557       58.960402       30.127903       0
       11526.114       104.24182       26.191377       0
       11538.671       86.816413       37.310238       0
       11551.229       103.88894       32.956709       0
       11563.786       80.917810       47.626349       0
       11576.343       64.350675       41.777842       0
       11588.900       93.348301       60.212697       0
       11601.458       69.428836       52.427236       0
       11614.015       84.188669       74.101297       0
       11626.572       46.317734       63.341802       0
       11639.129       109.37713       89.738622       0
       11651.686       75.942561       79.078920       0
       11664.244       35.345387       122.76898       0
       11676.801       11.613089       104.57597       0
       11689.358       224.50097       170.53881       0
       11701.915       107.94656       152.93983       0
       11714.473       146.67448       240.40133       0
       11727.030       24.997124       229.62292       0
       11739.587       18.103922       362.11105       0
       11752.144      -198.02531       343.79214       0
       11764.702       106.35335       531.25056       0
       11777.259       298.94956       503.27259       0
       11789.816      -421.79843       757.69255       0
       11802.373       82.790912       771.13612       0
       11814.931       1184.5603       1269.1623       0
       11827.488       452.25405       1271.8494       0
       11840.045      -338.76777       2074.1436       0
       11852.602       727.57376       2143.5313       0
       11865.160       2268.1865       3498.9809       0
       11877.717      -752.68080       3078.3052       0
       11890.274       2274.7313       4167.0875       0
       11902.831       775.66901       3299.5650       0
       11915.388       3110.1060       4099.8841       0
       11927.946      -1070.5177       3113.8251       0
       11940.503       3430.6898       3974.4915       0
       11953.060       629.32400       3223.0158       0
       11965.617       2011.1300       4455.6901       0
       11978.175      -1645.9208       3903.3657       0
       11990.732      -646.93481       5710.0227       0
       12003.289      -2679.7935       5423.8455       0
       12015.846      -3277.9989       7843.2303       0
