#WAVELENGTH FLUX ERROR MASK
       10187.088       1452.4795       3738.9587       0
       10209.636       26.091202       2874.9399       0
       10232.184      -75.236088   7.5230878e+08       0
       10254.732       639.63051       2158.0322       0
       10277.280       159.86640       2162.3689       0
       10299.828      -114.48685       1616.6366       0
       10322.376      -1031.1193       1652.7881       0
       10344.925       514.41626       1294.4354       0
       10367.473      -253.14841       1419.5050       0
       10390.021      -175.54126       1076.8504       0
       10412.569       187.20366       1140.1575       0
       10435.117       144.30317       800.46428       0
       10457.665      -417.59204       877.80995       0
       10480.213       220.98749       649.45582       0
       10502.761       75.305131       637.91275       0
       10525.309       261.00070       460.92377       0
       10547.857       82.352660       467.33651       0
       10570.405      -19.913584       349.51824       0
       10592.953       97.326827       363.79154       0
       10615.501      -23.505614       279.22301       0
       10638.049      -91.528420       292.89701       0
       10660.597       62.528261       227.57152       0
       10683.145       66.682338       231.33112       0
       10705.693       140.96829       173.27632       0
       10728.241       32.189733       168.79216       0
       10750.789       83.595565       122.16569       0
       10773.337       154.19514       119.04589       0
       10795.885       99.042587       86.236501       0
       10818.433       81.307815       86.103891       0
       10840.981       132.34584       19374023.       0
       10863.529       119.80499       68.084206       0
       10886.077       58.704789       48.836350       0
       10908.625       89.516944       57.327868       0
       10931.173       67.740417       45.835358       0
       10953.721       77.949146       50.045392       0
       10976.270       91.756596       40.047627       0
       10998.818       81.477436       43.866046       0
       11021.366       57.674397       35.095481       1
       11043.914       50.465162       37.811513       1
       11066.462       56.746851       31.016091       1
       11089.010       48.097241       33.791992       1
       11111.558       80.901908       28.385934       1
       11134.106       78.653686       31.568756       1
       11156.654       60.916026       26.586138       1
       11179.202       75.397112       29.997338       1
       11201.750       59.758550       25.769047       1
       11224.298       70.108800       28.991419       1
       11246.846       70.779083       25.397293       1
       11269.394       68.189730       28.235826       1
       11291.942       79.125342       24.929954       1
       11314.490       74.665776       27.469701       1
       11337.038       53.228235       23.563190       1
       11359.586       65.019070       26.850807       1
       11382.134       64.194898       23.218631       1
       11404.682       41.435368       23.777914       1
       11427.230       62.792268       23.382002       1
       11449.778       62.802106       26.006619       1
       11472.326       73.650709       23.223019       1
       11494.874       52.430329       25.629461       1
       11517.422       61.093907       23.020169       1
       11539.970       76.108930       25.712403       1
       11562.518       55.897351       20.988700       1
       11585.066       71.541638       25.469013       1
       11607.614       62.492146       22.599773       1
       11630.163       76.318669       25.192776       1
       11652.711       63.288926       22.151793       1
       11675.259       53.782269       24.348383       1
       11697.807       62.138856       21.691257       1
       11720.355       73.781869       24.048251       1
       11742.903       70.260910       21.225098       1
       11765.451       63.125011       23.444595       1
       11787.999       66.213561       20.710299       1
       11810.547       71.050040       23.070422       1
       11833.095       60.533601       20.342572       1
       11855.643       55.312885       20.966901       1
       11878.191       65.455456       20.041497       1
       11900.739       58.084704       21.977542       1
       11923.287       46.624784       19.568310       1
       11945.835       89.165037       22.317921       1
       11968.383       55.557623       19.470328       1
       11990.931       63.469713       21.641768       1
       12013.479       57.368025       19.142192       1
       12036.027       81.220913       21.558174       1
       12058.575       59.301167       18.945570       1
       12081.123       79.495256       21.335979       1
       12103.671       69.783619       18.886006       1
       12126.219       70.823291       20.969260       1
       12148.767       62.001520       18.521082       1
       12171.315       63.932236       19.731929       1
       12193.863       60.844638       18.577524       1
       12216.411       53.412825       17.502096       1
       12238.959       71.636011       18.381755       1
       12261.507       60.300785       19.251286       1
       12284.056       66.839955       18.194401       1
       12306.604       60.515767       19.091065       1
       12329.152       59.242378       17.931842       1
       12351.700       67.080181       18.803648       1
       12374.248       63.412177       17.802561       1
       12396.796       60.539361       18.758620       1
       12419.344       65.191024       17.713411       1
       12441.892       82.369351       18.879255       1
       12464.440       52.690987       17.353119       1
       12486.988       62.391230       18.418569       1
       12509.536       64.978574       17.401393       1
       12532.084       79.710958       18.515108       1
       12554.632       63.261329       17.277143       1
       12577.180       58.019639       18.199200       1
       12599.728       68.500660       17.170922       1
       12622.276       71.572773       18.186786       1
       12644.824       57.773854       17.065867       1
       12667.372       54.815052       16.664451       1
       12689.920       58.637047       16.946320       1
       12712.468       51.479006       17.676314       1
       12735.016       51.068533       16.627601       1
       12757.564       71.229872       17.415411       1
       12780.112       64.723493       16.489316       1
       12802.660       68.346833       17.441182       1
       12825.208       70.031059       16.456750       1
       12847.756       56.615373       17.194563       1
       12870.304       65.244840       16.261181       1
       12892.852       67.626279       17.191168       1
       12915.401       63.500169       16.049212       1
       12937.949       67.632583       16.940367       1
       12960.497       71.558123       16.045224       1
       12983.045       57.462086       15.471198       1
       13005.593       76.357731       15.931731       1
       13028.141       76.737737       16.690606       1
       13050.689       79.059138       15.800682       1
       13073.237       55.902165       16.347215       1
       13095.785       74.443089       15.610292       1
       13118.333       64.453231       16.299734       1
       13140.881       70.925888       15.358432       1
       13163.429       62.467403       16.139748       1
       13185.977       79.165142       15.355627       1
       13208.525       63.636284       15.877540       1
       13231.073       67.758442       15.115147       1
       13253.621       73.003002       15.863208       1
       13276.169       75.213617       15.096847       1
       13298.717       70.404095       15.823569       1
       13321.265       77.740280       15.070770       1
       13343.813       90.111559       16.013400       1
       13366.361       69.148714       14.792029       1
       13388.909       67.549978       15.647707       1
       13411.457       61.264014       14.716160       1
       13434.005       70.552559       15.486259       1
       13456.553       76.458006       14.750570       1
       13479.101       72.422886       15.323106       1
       13501.649       77.539916       14.594375       1
       13524.197       71.568856       15.269884       1
       13546.745       66.372795       14.424920       1
       13569.294       57.730805       15.102132       1
       13591.842       78.007806       14.498886       1
       13614.390       58.672426       15.080164       1
       13636.938       59.905238       14.310083       1
       13659.486       65.737725       15.169855       1
       13682.034       67.549745       14.386062       1
       13704.582       60.654039       15.161133       1
       13727.130       76.448727       14.495986       1
       13749.678       68.422433       15.243248       1
       13772.226       63.575886       14.391027       1
       13794.774       48.376007       15.004720       1
       13817.322       68.582912       14.469095       1
       13839.870       70.278251       15.244605       1
       13862.418       63.671394       15.088900       1
       13884.966       70.638937       15.193473       1
       13907.514       63.916864       14.283412       1
       13930.062       68.326716       15.028838       1
       13952.610       69.584176       14.277440       1
       13975.158       64.390486       15.580206       1
       13997.706       59.098511       14.097384       1
       14020.254       65.329123       14.845105       1
       14042.802       55.636496       13.847866       1
       14065.350       61.478767       14.526543       1
       14087.898       67.494689       13.847461       1
       14110.446       59.010810       14.553938       1
       14132.994       57.362863       13.665127       1
       14155.542       57.675409       14.461112       1
       14178.090       66.673943       13.768710       1
       14200.638       58.004692       14.403976       1
       14223.187       62.694880       13.640527       1
       14245.735       58.876834       14.336651       1
       14268.283       67.036546       13.562049       1
       14290.831       57.084138       14.177874       1
       14313.379       59.930824       13.447458       1
       14335.927       54.296528       14.080109       1
       14358.475       63.115178       13.403886       1
       14381.023       61.753711       14.130611       1
       14403.571       54.666859       13.291133       1
       14426.119       60.204039       14.033768       1
       14448.667       68.724431       13.367779       1
       14471.215       57.025355       14.040740       1
       14493.763       59.081627       13.291130       1
       14516.311       59.031442       14.013719       1
       14538.859       67.714232       13.347905       1
       14561.407       63.343753       14.076137       1
       14583.955       62.401928       13.311436       1
       14606.503       60.004829       14.003757       1
       14629.051       61.915655       13.282016       1
       14651.599       55.708188       14.039276       1
       14674.147       54.831073       13.269525       1
       14696.695       62.233735       14.070290       1
       14719.243       61.877933       13.314124       1
       14741.791       63.994420       14.105840       1
       14764.339       53.821027       13.268636       1
       14786.887       51.773477       13.921538       1
       14809.435       66.978255       13.334945       1
       14831.983       56.575080       14.017085       1
       14854.531       62.539634       13.267726       1
       14877.080       67.716113       14.024742       1
       14899.628       57.913805       13.096067       1
       14922.176       57.744968       13.742631       1
       14944.724       57.691748       12.984421       1
       14967.272       64.722618       13.779541       1
       14989.820       55.673162       12.950192       1
       15012.368       54.731936       12.332567       1
       15034.916       59.988610       12.933722       1
       15057.464       57.406328       12.362341       1
       15080.012       66.936245       13.025191       1
       15102.560       61.258117       13.650831       1
       15125.108       66.994855       13.138333       1
       15147.656       59.119110       13.624430       1
       15170.204       66.197654       12.940597       1
       15192.752       59.911576       13.555401       1
       15215.300       60.864048       12.872962       1
       15237.848       61.478171       14.097839       1
       15260.396       66.707476       12.738029       1
       15282.944       51.938372       14.040343       1
       15305.492       63.537432       12.716578       1
       15328.040       60.097314       14.174850       1
       15350.588       59.366161       12.683012       1
       15373.136       56.248771       14.103566       1
       15395.684       62.462584       12.702746       1
       15418.232       60.158218       14.186719       1
       15440.780       69.955740       12.839083       1
       15463.328       59.465613       14.227877       1
       15485.876       51.385581       11.641172       1
       15508.425       51.598151       14.141834       1
       15530.973       59.024434       12.890922       1
       15553.521       68.333434       14.328988       1
       15576.069       62.048746       12.905477       1
       15598.617       65.320074       14.263060       1
       15621.165       56.689900       12.679761       1
       15643.713       55.428674       14.168815       1
       15666.261       57.463814       12.675972       1
       15688.809       58.937512       14.090581       1
       15711.357       65.192948       12.660847       1
       15733.905       56.907395       13.983619       1
       15756.453       59.915239       12.571167       1
       15779.001       66.692710       14.111714       1
       15801.549       59.193969       12.543491       1
       15824.097       56.833889       13.977271       1
       15846.645       56.382888       12.539946       1
       15869.193       50.496919       13.932078       1
       15891.741       58.636890       12.604996       1
       15914.289       59.329907       14.052232       1
       15936.837       46.782241       11.561214       1
       15959.385       57.256210       14.166847       1
       15981.933       61.999413       12.679119       1
       16004.481       63.957785       14.175579       1
       16027.029       61.596200       12.700940       1
       16049.577       47.420476       14.023970       1
       16072.125       61.613395       12.733020       1
       16094.673       45.498903       14.064808       1
       16117.221       67.507259       12.833850       1
       16139.769       54.727752       14.227961       1
       16162.318       60.779277       12.821599       1
       16184.866       58.943666       14.401845       1
       16207.414       58.339421       12.804860       1
       16229.962       52.857625       14.415626       1
       16252.510       54.747280       12.922701       1
       16275.058       47.329195       14.438802       1
       16297.606       64.813346       13.111815       1
       16320.154       55.704969       14.575233       1
       16342.702       48.253540       12.989079       1
       16365.250       43.668875       14.481794       1
       16387.798       50.587012       12.946801       1
       16410.346       45.601977       13.272820       1
       16432.894       34.286283       11.788964       1
       16455.442       64.186518       14.814496       1
       16477.990       59.875674       13.407335       1
       16500.538       55.260320       15.033035       1
       16523.086       47.994609       13.835410       1
       16545.634       46.074162       15.929114       1
       16568.182       48.037235       14.889449       1
       16590.730       67.262928       17.744779       1
       16613.278       65.397330       16.839317       1
       16635.826       54.993415       20.035804       1
       16658.374       41.276976       19.310273       1
       16680.922       44.113244       23.764689       1
       16703.470       68.794073       24.055832       1
       16726.018       51.981896       29.839347       1
       16748.566       47.675542       30.173209       1
       16771.114       43.060136       38.233576       0
       16793.662       74.115676       39.155546       0
       16816.211       70.750683       49.604024       0
       16838.759       71.708132       49.833399       0
       16861.307       48.029238       62.366751       0
       16883.855       9.6113416       56.101730       0
       16906.403       111.96643       77.750986       0
       16928.951       59.025054       76.889271       0
       16951.499     0.043540844       95.082349       0
       16974.047      -1.2704880       94.653000       0
       16996.595      -1.6624009       118.83917       0
       17019.143      -1.6422744       97.007033       0
       17041.691      -26.460188       144.60949       0
       17064.239       56.634350       144.28009       0
       17086.787      -6.2976144       180.07041       0
       17109.335       118.38767       182.09944       0
       17131.883       27.139871       232.71293       0
       17154.431       30.407120       240.22834       0
       17176.979      -27.009858       307.45029       0
       17199.527      -37.242418       311.77064       0
