#WAVELENGTH FLUX ERROR MASK
       10187.088      -2590.8422       5857.6418       0
       10209.636      -1387.9405       2895.6750       0
       10232.184      -2642.3626       4544.5507       0
       10254.732       108.69563       2173.8123       0
       10277.280      -2581.5883       3355.2927       0
       10299.828       276.31289       1645.1774       0
       10322.376      -1148.8432       2599.8249       0
       10344.925       655.74753       1314.9371       0
       10367.473       465.72863       2143.7067       0
       10390.021       413.57665       1100.4379       0
       10412.569      -546.46039       1554.6513       0
       10435.117       483.58326       894.29180       0
       10457.665      -582.53784       1190.6031       0
       10480.213       248.02284       656.69217       0
       10502.761      -25.494790       1006.6070       0
       10525.309      -67.465620       460.03665       0
       10547.857      -34.329943       732.35957       0
       10570.405       141.57842       357.12795       0
       10592.953      -163.44868       561.81537       0
       10615.501       125.37730       286.20645       0
       10638.049       23.002254       452.18105       0
       10660.597       235.70431       232.74489       0
       10683.145       129.98258       346.99488       0
       10705.693       138.39390       176.44753       0
       10728.241      0.96740776       253.89654       0
       10750.789       175.07402       125.02440       0
       10773.337       2.9342950       177.87947       0
       10795.885       108.31364       87.266770       0
       10818.433       78.617423       130.70073       0
       10840.981       120.77025       66.506189       0
       10863.529       138.38348       101.89446       0
       10886.077       126.63312       54.786026       0
       10908.625       77.840687       84.971474       0
       10931.173       113.51929       47.143201       0
       10953.721       52.619962       74.244305       0
       10976.270       75.827730       40.965283       0
       10998.818       77.097196       64.361236       0
       11021.366       111.31725       36.263501       1
       11043.914       102.73101       56.193029       1
       11066.462       88.411538       31.659801       1
       11089.010       76.833680       48.924861       1
       11111.558       108.74948       29.109499       1
       11134.106       98.907634       43.130759       1
       11156.654       114.66644       27.408567       1
       11179.202       92.616508       38.050643       1
       11201.750       92.783411       26.502017       1
       11224.298       101.53546       33.836036       1
       11246.846       116.59258       26.208584       1
       11269.394       99.463792       31.245792       1
       11291.942       99.508787       25.387817       1
       11314.490       120.02014       29.162974       1
       11337.038       108.16669       27.183315       1
       11359.586       68.902362       26.999993       1
       11382.134       92.383140       26.667298       1
       11404.682       108.10335       26.541274       1
       11427.230       99.691178       24.183106       1
       11449.778       117.66395       25.977113       1
       11472.326       106.66046       24.014821       1
       11494.874       81.202479       24.802423       1
       11517.422       87.408797       23.615387       1
       11539.970       105.98973       25.075336       1
       11562.518       116.71238       23.758994       1
       11585.066       129.20481       25.059189       1
       11607.614       89.922709       23.213394       1
       11630.163       92.052909       24.306048       1
       11652.711       93.780690       22.852521       1
       11675.259       97.702540       23.899173       1
       11697.807       106.74252       22.534406       1
       11720.355       102.21682       23.365486       1
       11742.903       84.431431       21.629489       1
       11765.451       122.11717       23.197738       1
       11787.999       91.618209       21.360814       1
       11810.547       113.40136       22.625406       1
       11833.095       97.376671       21.018042       1
       11855.643       120.64788       22.264839       1
       11878.191       97.085190       20.717814       1
       11900.739       104.75445       21.578523       1
       11923.287       94.961403       20.387416       1
       11945.835       65.012147       17.862738       1
       11968.383       99.462977       20.241169       1
       11990.931       120.67281       21.287185       1
       12013.479       100.29135       19.843182       1
       12036.027       112.96801       21.050906       1
       12058.575       97.635041       19.434632       1
       12081.123       96.904144       20.616226       1
       12103.671       102.51946       19.390017       1
       12126.219       95.175527       20.393360       1
       12148.767       86.930921       19.050891       1
       12171.315       109.59589       21.218723       1
       12193.863       99.473128       18.684591       1
       12216.411       108.49726       20.890267       1
       12238.959       83.152682       18.335485       1
       12261.507       98.339900       20.569099       1
       12284.056       89.889565       18.241822       1
       12306.604       83.160783       20.195502       1
       12329.152       101.41677       18.251828       1
       12351.700       75.605388       19.878597       1
       12374.248       118.11145       18.226086       1
       12396.796       89.793835       19.923049       1
       12419.344       98.263222       17.861140       1
       12441.892       94.418963       19.798900       1
       12464.440       103.53021       17.722559       1
       12486.988       87.151474       19.373015       1
       12509.536       105.03128       17.599438       1
       12532.084       91.821630       19.438491       1
       12554.632       86.698481       17.315951       1
       12577.180       95.700110       19.367729       1
       12599.728       93.260528       17.178771       1
       12622.276       106.65966       19.363357       1
       12644.824       93.895736       17.280738       1
       12667.372       114.77051       19.297980       1
       12689.920       96.944640       17.146042       1
       12712.468       77.644597       18.687354       1
       12735.016       96.477632       16.910763       1
       12757.564       91.110375       18.074219       1
       12780.112       102.23245       16.689205       1
       12802.660       100.78898       18.486606       1
       12825.208       113.58899       16.596141       1
       12847.756       94.436981       18.297817       1
       12870.304       100.11673       16.518785       1
       12892.852       91.164219       18.228634       1
       12915.401       102.97163       16.431058       1
       12937.949       96.373848       18.117935       1
       12960.497       95.624914       16.118389       1
       12983.045       97.728644       17.924108       1
       13005.593       94.383542       15.961927       1
       13028.141       115.03721       17.953252       1
       13050.689       103.24277       15.841664       1
       13073.237       105.85570       17.623077       1
       13095.785       121.25108       15.943924       1
       13118.333       111.21395       17.598973       1
       13140.881       111.87531       15.734949       1
       13163.429       125.10157       17.573889       1
       13185.977       124.79218       15.718113       1
       13208.525       112.60409       17.078912       1
       13231.073       106.27791       15.726252       1
       13253.621       105.93710       16.861804       1
       13276.169       102.13053       15.212416       1
       13298.717       99.516132       16.875310       1
       13321.265       107.68911       15.243532       1
       13343.813       95.145283       16.725951       1
       13366.361       90.175914       14.744395       1
       13388.909       94.786850       16.654829       1
       13411.457       94.106856       14.836377       1
       13434.005       98.204359       16.469667       1
       13456.553       101.52780       14.661420       1
       13479.101       94.037307       16.293371       1
       13501.649       104.82129       14.662467       1
       13524.197       80.043088       15.997223       1
       13546.745       99.427041       14.520048       1
       13569.294       77.301594       15.976004       1
       13591.842       90.113663       14.288622       1
       13614.390       80.047430       15.874381       1
       13636.938       92.694519       14.381730       1
       13659.486       101.63738       16.258853       1
       13682.034       107.86034       14.542740       1
       13704.582       85.373234       16.063601       1
       13727.130       89.687776       14.487455       1
       13749.678       75.847776       16.007266       1
       13772.226       92.759684       14.588378       1
       13794.774       83.555751       16.115424       1
       13817.322       80.942331       15.896124       1
       13839.870       92.320357       16.117827       1
       13862.418       76.169773       15.792423       1
       13884.966       98.412083       16.148456       1
       13907.514       101.47198       14.558904       1
       13930.062       94.682041       15.936634       1
       13952.610       91.840779       14.417513       1
       13975.158       98.686073       17.326674       1
       13997.706       100.89723       14.271805       1
       14020.254       101.26916       15.764143       1
       14042.802       91.964237       14.040275       1
       14065.350       84.787810       15.394896       1
       14087.898       68.041870       11.578292       1
       14110.446       92.582123       15.370595       1
       14132.994       100.33080       13.888459       1
       14155.542       86.509392       15.369922       1
       14178.090       100.88078       13.971294       1
       14200.638       92.326224       15.447646       1
       14223.187       80.770668       13.664674       1
       14245.735       102.94258       15.381475       1
       14268.283       78.921045       13.535199       1
       14290.831       99.623511       15.238200       1
       14313.379       87.033688       13.452217       1
       14335.927       91.966578       15.080233       1
       14358.475       79.199377       13.377284       1
       14381.023       79.780301       14.936332       1
       14403.571       96.209923       13.591661       1
       14426.119       79.555010       14.822719       1
       14448.667       87.094134       13.416361       1
       14471.215       97.113446       15.109200       1
       14493.763       89.809775       13.486761       1
       14516.311       100.68006       15.095434       1
       14538.859       96.958868       13.499812       1
       14561.407       71.338500       14.806697       1
       14583.955       84.601897       13.382853       1
       14606.503       100.16776       15.076019       1
       14629.051       81.522574       13.340431       1
       14651.599       85.666274       14.940021       1
       14674.147       92.051410       13.400825       1
       14696.695       106.36263       15.135142       1
       14719.243       74.133775       13.328765       1
       14741.791       101.13309       15.173481       1
       14764.339       82.539111       13.394390       1
       14786.887       103.45706       15.098077       1
       14809.435       92.345412       13.491331       1
       14831.983       108.40810       15.184301       1
       14854.531       96.093759       13.415809       1
       14877.080       84.749081       14.865034       1
       14899.628       83.516634       13.258539       1
       14922.176       105.88725       14.877345       1
       14944.724       64.409543       10.600739       1
       14967.272       99.662960       14.777520       1
       14989.820       79.353609       13.043705       1
       15012.368       50.390217       11.569751       1
       15034.916       80.753362       13.033740       1
       15057.464       72.705020       12.585339       1
       15080.012       80.178969       12.953474       1
       15102.560       94.156667       14.614706       1
       15125.108       88.831184       13.059847       1
       15147.656       81.357441       14.401935       1
       15170.204       95.312922       13.061846       1
       15192.752       82.138200       14.371571       1
       15215.300       69.702461       12.815920       1
       15237.848       80.980426       14.763387       1
       15260.396       87.298242       13.060021       1
       15282.944       82.581254       13.753560       1
       15305.492       79.402526       13.050042       1
       15328.040       87.615832       13.866833       1
       15350.588       86.022376       13.121030       1
       15373.136       80.121987       13.779699       1
       15395.684       85.106735       13.130864       1
       15418.232       75.785217       13.722928       1
       15440.780       89.049969       13.208315       1
       15463.328       76.080070       13.807327       1
       15485.876       78.850451       13.153256       1
       15508.425       88.026562       13.876639       1
       15530.973       91.499275       13.210796       1
       15553.521       79.778420       13.833591       1
       15576.069       93.666578       13.236186       1
       15598.617       89.482775       13.948517       1
       15621.165       93.884281       13.272285       1
       15643.713       67.472289       13.667418       1
       15666.261       91.672326       13.177411       1
       15688.809       75.610546       5107321.6       1
       15711.357       86.800686       13.070255       1
       15733.905       90.865660       13.629221       1
       15756.453       77.014474       12.856419       1
       15779.001       93.077417       13.778562       1
       15801.549       76.666305       12.888971       1
       15824.097       78.730605       13.590694       1
       15846.645       80.700527       12.933037       1
       15869.193       78.130677       13.655604       1
       15891.741       82.728045       13.060539       1
       15914.289       82.170659       13.759475       1
       15936.837       94.505804       13.199456       1
       15959.385       86.338843       13.806703       1
       15981.933       83.311830       13.037198       1
       16004.481       77.558877       13.781353       1
       16027.029       97.334880       13.240173       1
       16049.577       64.244488       13.577358       1
       16072.125       81.316897       13.013595       1
       16094.673       91.079109       13.944899       1
       16117.221       93.896715       13.235540       1
       16139.769       90.101450       13.993795       1
       16162.318       96.218610       13.373534       1
       16184.866       86.098494       14.072532       1
       16207.414       88.873043       13.333954       1
       16229.962       90.218200       14.166714       1
       16252.510       91.770505       13.555081       1
       16275.058       82.958943       14.172751       1
       16297.606       67.754298       13.299286       1
       16320.154       95.251488       14.373212       1
       16342.702       59.632529       13.254087       1
       16365.250       80.527603       14.225502       1
       16387.798       77.142587       13.404520       1
       16410.346       82.114108       14.270487       1
       16432.894       39.383474       10.798156       1
       16455.442       76.181467       14.259281       1
       16477.990       79.809438       13.719154       1
       16500.538       75.735889       14.487225       1
       16523.086       85.662567       14.412827       1
       16545.634       90.893863       15.572433       1
       16568.182       93.703616       15.556311       1
       16590.730       74.477608       17.042331       1
       16613.278       74.854251       17.082419       1
       16635.826       73.745444       19.453333       1
       16658.374       73.174611       19.812063       1
       16680.922       79.059592       23.214979       1
       16703.470       81.138749       24.488310       1
       16726.018       85.793581       29.012239       1
       16748.566       45.180686       24.932837       1
       16771.114       94.190501       37.235694       0
       16793.662       98.832038       39.895330       0
       16816.211       69.072450       47.643680       0
       16838.759       109.48629       50.841261       0
       16861.307       140.89965       60.587496       0
       16883.855       104.17493       63.446553       0
       16906.403       83.130530       74.798005       0
       16928.951       57.224044       77.676834       0
       16951.499       101.36649       92.094066       0
       16974.047       4.0713073       95.954576       0
       16996.595      -34.284588       112.78150       0
       17019.143       3.7781823       119.49805       0
       17041.691       151.92520       140.66268       0
       17064.239       187.64687       148.05954       0
       17086.787      -12.086793       172.74087       0
       17109.335       40.617416       184.16996       0
       17131.883      -162.17680       220.81443       0
       17154.431      -31.396046       241.85459       0
       17176.979       139.17060       295.78772       0
       17199.527      -60.908386       315.90971       0
