#WAVELENGTH FLUX ERROR MASK
       7484.5347      -19057.716       22428.096       0
       7496.4470      -2278.1998       23475.337       0
       7508.3594      -1918.2113       16075.136       0
       7520.2717      -9673.0881       16631.376       0
       7532.1840      -8882.2991       11627.660       0
       7544.0964      -1253.0523       11718.027       0
       7556.0087       3775.9237       8345.8632       0
       7567.9210      -5611.1720       7398.5657       0
       7579.8334       1322.2881       4977.8610       0
       7591.7457       1473.4131       4891.5308       0
       7603.6580      -239.95725       3311.3083       0
       7615.5704      -1560.1305       3425.6010       0
       7627.4827      -280.42680       2429.4020       0
       7639.3950      -29.001858       2571.5803       0
       7651.3074       219.17805       1821.8679       0
       7663.2197       22.915801       1895.5039       0
       7675.1320      -562.42130       1298.1133       0
       7687.0444       616.13745       1334.0754       0
       7698.9567      -210.84030       911.75080       0
       7710.8690      -308.70503       864.53871       0
       7722.7813      -432.76900       682.82070       0
       7734.6937      -388.58892       743.52569       0
       7746.6060       49.026082       558.77101       0
       7758.5183      -385.34732       669.87479       0
       7770.4307       139.67015       477.09669       0
       7782.3430      -226.87582       529.97209       0
       7794.2553      -123.83731       400.71109       0
       7806.1677       172.16472       445.20984       0
       7818.0800       1.0822263       327.45099       0
       7829.9923       33.455146       357.86968       0
       7841.9047      -202.50218       262.32811       0
       7853.8170      -37.894819       291.76559       0
       7865.7293      -63.187201       218.52464       0
       7877.6417      -27.077031       244.02196       0
       7889.5540      -15.807148       193.86091       0
       7901.4663       270.21678       214.63661       0
       7913.3787      -78.715347       169.28551       0
       7925.2910      -71.608544       188.35899       0
       7937.2033       93.915068       157.29786       0
       7949.1157      -38.319910       172.67655       0
       7961.0280       41.525539       159.31600       0
       7972.9403      -29.477368       156.91818       0
       7984.8526       9.8312940       136.67124       0
       7996.7650       1.9168822       148.22785       0
       8008.6773       5.8347326       118.09621       0
       8020.5896      -79.393905       138.18767       0
       8032.5020      -20.517839       112.03771       0
       8044.4143       101.48583       133.31299       0
       8056.3266       91.895896       111.22215       0
       8068.2390       23.966490       128.41285       0
       8080.1513       80.460044       101.99894       0
       8092.0636       38.291205       124.32593       0
       8103.9760       35.689632       98.191938       0
       8115.8883       136.83412       121.22633       0
       8127.8006       32.062581       94.729386       0
       8139.7130       35.547316       115.58536       0
       8151.6253       101.49582       92.192892       1
       8163.5376       11.232146       110.26867       1
       8175.4500       69.671983       89.722208       1
       8187.3623       74.658253       108.66687       1
       8199.2746       67.642365       87.644957       1
       8211.1870       98.589619       104.87029       1
       8223.0993       47.547049       82.601544       1
       8235.0116       67.895783       99.861990       1
       8246.9239       86.070775       77.795863       1
       8258.8363       47.300984       94.698316       1
       8270.7486       88.435738       74.216332       1
       8282.6609       29.786077       90.738797       1
       8294.5733       73.025472       70.554228       1
       8306.4856       81.321741       87.098948       1
       8318.3979       80.528585       68.060663       1
       8330.3103       46.630757       83.848616       1
       8342.2226       51.085988       65.601582       1
       8354.1349       90.423271       82.245145       1
       8366.0473       94.555937       67.311117       1
       8377.9596       31.470854       78.821950       1
       8389.8719       38.994320       62.198441       1
       8401.7843       66.287641       78.194792       1
       8413.6966       51.878354       60.468129       1
       8425.6089       90.778605       75.940600       1
       8437.5213       100.29384       58.766649       1
       8449.4336       50.626603       72.627113       1
       8461.3459       55.933345       56.265401       1
       8473.2583       52.704564       69.887308       1
       8485.1706       57.289811       54.817659       1
       8497.0829       47.574155       67.407463       1
       8508.9952       76.139608       53.347033       1
       8520.9076       130.85274       66.530100       1
       8532.8199       113.64754       52.638569       1
       8544.7322       40.665137       64.436513       1
       8556.6446       77.661836       51.059734       1
       8568.5569       59.397460       63.067163       1
       8580.4692       76.678408       50.855078       1
       8592.3816       80.036040       62.934314       1
       8604.2939       98.794249       50.929935       1
       8616.2062       65.134763       62.103265       1
       8628.1186       70.232829       50.864710       1
       8640.0309       63.466061       61.888133       1
       8651.9432       78.514500       49.702337       1
       8663.8556       85.294817       60.894517       1
       8675.7679       50.469085       48.612639       1
       8687.6802       53.606347       59.069276       1
       8699.5926       52.585379       46.723996       1
       8711.5049       118.91472       57.614031       1
       8723.4172       55.735549       45.371375       1
       8735.3296       58.146533       55.034425       1
       8747.2419       72.904216       44.007370       1
       8759.1542       45.630263       53.422092       1
       8771.0665       75.317268       43.154387       1
       8782.9789       38.284145       52.324333       1
       8794.8912       69.099816       42.307695       1
       8806.8035       85.947470       51.876638       1
       8818.7159       64.124292       41.347598       1
       8830.6282       105.32977       50.903335       1
       8842.5405       73.808288       46.864557       1
       8854.4529       64.227094       49.394586       1
       8866.3652       75.570904       39.796177       1
       8878.2775       68.813814       48.457920       1
       8890.1899       75.981090       39.132892       1
       8902.1022       80.002394       48.018381       1
       8914.0145       81.773188       38.594312       1
       8925.9269       70.680432       47.332649       1
       8937.8392       55.502620       37.757047       1
       8949.7515       51.112458       46.228716       1
       8961.6639       67.322765       37.041594       1
       8973.5762       52.609143       45.201156       1
       8985.4885       56.404931       36.419140       1
       8997.4009       85.757414       44.739182       1
       9009.3132       65.578125       35.911046       1
       9021.2255       82.334444       44.423742       1
       9033.1378       47.033886       35.464169       1
       9045.0502       54.313752       43.862249       1
       9056.9625       82.699688       35.546800       1
       9068.8748       64.846604       43.185075       1
       9080.7872       65.855354       39.817909       1
       9092.6995       54.064993       42.624267       1
       9104.6118       65.804256       34.347171       1
       9116.5242       67.279592       42.661714       1
       9128.4365       87.875085       34.019482       1
       9140.3488       81.137434       42.226644       1
       9152.2612       46.851314       32.946257       1
       9164.1735       68.402687       41.057980       1
       9176.0858       62.802931       32.584371       1
       9187.9982       60.971909       40.274492       1
       9199.9105       84.402844       32.183571       1
       9211.8228       73.167632       39.709619       1
       9223.7352       86.659992       31.719784       1
       9235.6475       66.292801       39.117959       1
       9247.5598       90.488009       34.463903       1
       9259.4722       80.363706       38.740749       1
       9271.3845       93.434077       34.091887       1
       9283.2968       67.722926       38.234292       1
       9295.2091       61.336110       30.481383       1
       9307.1215       61.948280       37.777087       1
       9319.0338       64.633559       30.120150       1
       9330.9461       70.469344       37.540258       1
       9342.8585       69.951142       29.926389       1
       9354.7708       56.952239       33.821563       1
       9366.6831       83.138038       29.755713       1
       9378.5955       91.154178       37.212655       1
       9390.5078       66.172177       29.259851       1
       9402.4201       69.971513       36.395087       1
       9414.3325       84.273902       29.182357       1
       9426.2448       74.777626       35.967719       1
       9438.1571       73.768798       28.701932       1
       9450.0695       72.170457       38.412914       1
       9461.9818       56.788874       28.261402       1
       9473.8941       99.016712       38.644090       1
       9485.8065       68.876985       27.990427       1
       9497.7188       76.982607       34.864708       1
       9509.6311       85.740657       27.892927       1
       9521.5435       67.573642       34.348394       1
       9533.4558       97.966944       31.943289       1
       9545.3681       63.705248       33.927996       1
       9557.2804       58.674440       27.163962       1
       9569.1928       71.801755       33.826719       1
       9581.1051       85.385289       27.050993       1
       9593.0174       71.481857       30.809676       1
       9604.9298       77.095248       26.668287       1
       9616.8421       69.152028       32.969000       1
       9628.7544       52.302667       27.499577       1
       9640.6668       54.696310       32.538356       1
       9652.5791       83.352322       26.326333       1
       9664.4914       70.464892       32.576411       1
       9676.4038       69.233455       25.980283       1
       9688.3161       48.662693       10656344.       1
       9700.2284       70.872809       25.783211       1
       9712.1408       75.671334       31.832749       1
       9724.0531       60.887379       26.661645       1
       9735.9654       79.659501       31.788612       1
       9747.8778       52.386560       25.183334       1
       9759.7901       77.860457       31.465143       1
       9771.7024       61.024128       24.962482       1
       9783.6148       53.074111       30.918345       1
       9795.5271       85.612414       25.085804       1
       9807.4394       62.735143       30.947251       1
       9819.3517       81.684399       25.172318       1
       9831.2641       88.849478       31.113857       1
       9843.1764       57.658551       24.645530       1
       9855.0887       80.040873       30.888502       1
       9867.0011       59.220972       25.484045       1
       9878.9134       71.121263       30.684693       1
       9890.8257       58.802417       24.396062       1
       9902.7381       67.950407       30.506231       1
       9914.6504       67.429894       24.351699       1
       9926.5627       65.652107       30.280329       1
       9938.4751       69.419724       24.279796       1
       9950.3874       47.290380       29.765751       1
       9962.2997       80.471866       24.024051       1
       9974.2121       60.176492       29.520760       1
       9986.1244       70.044025       23.961136       1
       9998.0367       66.830094       29.237455       1
       10009.949       70.923162       23.409720       1
       10021.861       74.005982       29.081330       1
       10033.774       56.707446       23.062091       1
       10045.686       85.283293       29.048151       1
       10057.598       73.932687       23.211940       1
       10069.511       63.183660       28.860731       1
       10081.423       67.243081       23.089838       1
       10093.335       66.371544       28.830317       1
       10105.248       56.638433       22.955239       1
       10117.160       76.978142       28.758297       1
       10129.072       60.545647       22.889744       1
       10140.985       57.825350       28.422276       1
       10152.897       61.662029       22.568404       1
       10164.809       55.582877       27.735707       1
       10176.722       49.893794       22.343100       1
       10188.634       65.486000       27.662238       1
       10200.546       61.029292       22.227120       1
       10212.459       40.303037       24.932008       1
       10224.371       68.245623       22.103215       1
       10236.283       51.578021       27.054483       1
       10248.196       71.134610       21.911735       1
       10260.108       73.952603       26.912980       1
       10272.020       65.418647       21.584425       1
       10283.933       57.673371       26.492638       1
       10295.845       67.799880       21.404421       1
       10307.757       55.651856       26.212181       1
       10319.670       62.813976       24.568983       1
       10331.582       53.046134       28.265886       1
       10343.494       63.113084       21.184545       1
       10355.407       74.329489       26.067030       1
       10367.319       69.609570       21.104612       1
       10379.231       53.597969       25.914075       1
       10391.144       80.917631       21.208895       1
       10403.056       71.912053       26.103964       1
       10414.968       62.184743       20.932711       1
       10426.881       66.956166       25.901195       1
       10438.793       66.049714       20.843212       1
       10450.705       58.865819       25.662436       1
       10462.618       63.035437       20.850949       1
       10474.530       52.556652       25.649691       1
       10486.442       52.703137       19.046182       1
       10498.355       68.829288       25.799533       1
       10510.267       78.630992       20.926341       1
       10522.179       81.035062       25.939481       1
       10534.092       65.541842       20.839699       1
       10546.004       78.592280       25.914379       1
       10557.916       69.825105       20.899750       1
       10569.829       67.785943       25.755389       1
       10581.741       67.617048       20.781628       1
       10593.653       51.779743       25.397558       1
       10605.566       56.133138       20.515988       1
       10617.478       64.509542       25.326938       1
       10629.390       63.689272       20.359722       1
       10641.303       84.109195       25.225315       1
       10653.215       63.890680       20.112961       1
       10665.127       58.406396       24.773830       1
       10677.040       72.578024       20.072843       1
       10688.952       61.863956       24.755102       1
       10700.864       82.507304       20.107551       1
       10712.777       88.743253       24.981521       1
       10724.689       64.854886       19.977523       1
       10736.601       62.264923       24.718102       1
       10748.514       70.752551       19.956528       1
       10760.426       59.814041       24.538841       1
       10772.338       63.459941       19.870845       1
       10784.251       78.493187       24.668944       1
       10796.163       72.523148       19.944518       1
       10808.075       39.888936       22.100620       1
       10819.988       87.517313       19.926217       1
       10831.900       59.246102       22.461078       1
       10843.812       82.916707       19.823090       1
       10855.725       75.334370       24.362375       1
       10867.637       67.847233       19.623052       1
       10879.549       68.164593       24.137453       1
       10891.462       63.346893       19.518595       1
       10903.374       77.145383       24.167176       1
       10915.286       65.944364       19.498228       1
       10927.199       68.415253       24.053843       1
       10939.111       76.671723       19.562449       1
       10951.023       58.889319       23.907238       1
       10962.936       81.707828       19.600084       1
       10974.848       83.867984       24.268039       1
       10986.760       78.328865       20.446630       1
       10998.673       87.044425       24.332442       1
       11010.585       60.340257       19.456293       1
       11022.497       76.672009       24.152714       1
       11034.410       79.130116       19.558617       1
       11046.322       53.033070       21.969376       1
       11058.234       66.663777       19.439860       1
       11070.147       71.447579       25.982256       1
       11082.059       76.922720       20.234239       1
       11093.971       86.567265       26.366771       1
       11105.884       78.864798       19.481772       1
       11117.796       65.440093       25.987529       1
       11129.708       72.771485       19.451344       1
       11141.621       74.741372       24.045588       1
       11153.533       55.133823       22.294549       1
       11165.445       72.819703       24.026205       1
       11177.358       79.184527       19.536524       1
       11189.270       77.178708       24.444253       1
       11201.182       67.922630       19.527876       0
       11213.095       76.727888       24.424452       0
       11225.007       79.158465       22.203432       0
       11236.919       75.840465       24.375970       0
       11248.832       58.871456       19.432636       0
       11260.744       68.109203       24.346213       0
       11272.656       73.229141       19.502869       0
       11284.569       84.606724       24.467005       0
       11296.481       66.033599       19.498514       0
       11308.393       68.904387       24.350738       0
       11320.306       53.042517       22.475412       0
       11332.218       53.134268       24.899216       0
       11344.130       54.729903       20.522924       0
       11356.043       62.172661       26.510156       0
       11367.955       56.057527       22.536014       0
       11379.867       95.481259       32.947045       0
       11391.780       58.124166       26.234943       0
       11403.692       91.753284       36.364445       0
       11415.604       57.711038       32.231949       0
       11427.517       66.081668       45.309843       0
       11439.429       98.076349       41.377671       0
       11451.341       86.337206       58.116307       0
       11463.254       96.937688       52.746548       0
       11475.166       83.211315       73.042132       0
       11487.078       68.943749       65.235940       0
       11498.991       47.656494       88.973874       0
       11510.903       69.448050       79.471372       0
       11522.815      -7.7339715       109.84421       0
       11534.728       71.612315       101.09627       0
       11546.640       45.220298       145.97206       0
       11558.552       25.286918       157.59680       0
       11570.465      -11.868578       208.71792       0
       11582.377      -51.825864       206.39300       0
       11594.289       58.112632       316.96219       0
       11606.202       166.65768       316.82860       0
       11618.114       55.763999       480.77435       0
       11630.026       319.29590       468.47223       0
       11641.939      -262.95818       698.80696       0
       11653.851       98.032596       675.18279       0
       11665.763      -534.79033       1053.9242       0
       11677.676      -137.65860       1149.7915       0
       11689.588      -191.13741       1774.9143       0
       11701.500       698.71724       1842.2433       0
       11713.413      -571.35313       2996.0556       0
       11725.325       756.71817       3145.4321       0
       11737.237      -1289.6753       4465.9477       0
       11749.150       1871.7431       4100.5724       0
       11761.062      -3759.0783       4731.1977       0
