#WAVELENGTH FLUX ERROR MASK
       10166.923      -23.867703       3000.4940       0
       10189.291       1121.5559       3337.7477       0
       10211.659       1723.7401       2911.7524       0
       10234.027       12.107360       2535.3994       0
       10256.395      -886.12550       2155.2139       0
       10278.763       1992.3591       1955.9606       0
       10301.131       421.71345       1637.0955       0
       10323.499      -1293.9133       1125.2638       0
       10345.867       993.17804       1335.2174       0
       10368.235       1651.4127       1247.5467       0
       10390.603       860.64927       1118.6087       0
       10412.971      -225.76489       1037.9481       0
       10435.339       710.77037       910.67877       0
       10457.707       651.60404       790.63617       0
       10480.075       105.03072       670.20319       0
       10502.443       170.26135       575.97134       0
       10524.811       125.77197       481.21976       0
       10547.179       324.57522       419.68955       0
       10569.547       221.31651       363.16148       0
       10591.915       342.76334       327.32834       0
       10614.283       329.49351       295.55518       0
       10636.651      -34.626079       263.13661       0
       10659.019       145.28185       239.97303       0
       10681.387       182.52656       211.65729       0
       10703.755       82.600784       182.80054       0
       10726.123       119.28514       154.41441       0
       10748.491       188.28398       130.83981       0
       10770.859       218.61565       109.60204       0
       10793.227       41.964784       90.760063       0
       10815.595       76.922332       80.131016       0
       10837.963       103.45317       68.870986       0
       10860.331       72.967952       62.218439       0
       10882.699       69.942971       55.478759       0
       10905.067       66.146496       16221278.       0
       10927.435       25.511197       43.245232       0
       10949.803       87.386898       45.331185       0
       10972.171       87.820809       42.190997       0
       10994.539       62.499200       39.411598       0
       11016.907       78.965264       36.877201       1
       11039.275       66.217107       34.382889       1
       11061.643       62.546556       32.340172       1
       11084.011       61.083300       30.522426       1
       11106.379       54.978639       29.432666       1
       11128.747       91.152762       28.837087       1
       11151.115       65.111957       27.573389       1
       11173.483       59.394064       28.091041       1
       11195.851       61.455618       29.141894       1
       11218.219       73.987360       26.435846       1
       11240.587       78.062395       28.443447       1
       11262.955       73.878733       27.591963       1
       11285.323       74.021988       25.666699       1
       11307.691       68.410341       28.566329       1
       11330.059       62.780489       24.849624       1
       11352.427       76.513155       26.703748       1
       11374.795       66.609284       24.467284       1
       11397.163       72.757271       24.552160       1
       11419.531       76.661490       7541435.3       1
       11441.899       77.520870       24.189427       1
       11464.267       46.683039       21.087778       1
       11486.635       59.707751       23.617031       1
       11509.003       69.060440       23.554668       1
       11531.371       75.016903       23.648046       1
       11553.739       63.257489       23.488388       1
       11576.107       58.917906       23.346133       1
       11598.475       63.530351       23.248101       1
       11620.843       72.810614       23.157069       1
       11643.211       56.144842       22.816431       1
       11665.579       71.148938       22.356603       1
       11687.947       60.520799       22.154448       1
       11710.315       63.286626       21.899269       1
       11732.683       66.294571       21.863172       1
       11755.050       59.464602       21.171093       1
       11777.418       65.877831       21.356072       1
       11799.786       58.387811       20.898835       1
       11822.154       60.428413       20.802513       1
       11844.522       66.226993       20.572618       1
       11866.890       80.240371       20.750850       1
       11889.258       62.763921       20.154253       1
       11911.626       56.458549       20.275517       1
       11933.994       44.956948       19.633734       1
       11956.362       65.393921       19.999046       1
       11978.730       59.461670       19.590463       1
       12001.098       63.143116       19.801725       1
       12023.466       57.832405       19.386208       1
       12045.834       45.858976       21.393290       1
       12068.202       69.734855       19.041761       1
       12090.570       60.113158       20.313990       1
       12112.938       51.123906       20.186210       1
       12135.306       64.583921       19.032268       1
       12157.674       82.642264       18.905883       1
       12180.042       52.634094       18.721785       1
       12202.410       38.672780       16.471197       1
       12224.778       64.411255       18.660020       1
       12247.146       75.509498       18.270541       1
       12269.514       62.059668       18.378160       1
       12291.882       81.432475       18.207221       1
       12314.250       63.913135       18.273972       1
       12336.618       50.118754       17.581077       1
       12358.986       75.654917       18.100464       1
       12381.354       50.722679       17.895513       1
       12403.722       64.188310       17.813484       1
       12426.090       59.709566       17.569248       1
       12448.458       63.922393       17.659570       1
       12470.826       52.409876       18.944133       1
       12493.194       52.549836       17.436984       1
       12515.562       22.661263       14.454573       1
       12537.930       49.211435       17.377261       1
       12560.298       66.740977       17.346149       1
       12582.666       74.645328       17.417721       1
       12605.034       68.864513       17.205312       1
       12627.402       51.144667       17.182770       1
       12649.770       48.500276       17.276805       1
       12672.138       66.678804       17.165330       1
       12694.506       30.056107       15.025116       1
       12716.874       39.773202       14.970178       1
       12739.242       33.967019       16.719771       1
       12761.610       68.191787       16.744291       1
       12783.978       60.152365       16.485993       1
       12806.346       50.529170       16.361778       1
       12828.714       64.522029       16.795329       1
       12851.082       54.379906       16.385976       1
       12873.450       74.919451       16.820717       1
       12895.818       67.185819       16.211071       1
       12918.186       56.967760       16.091106       1
       12940.554       64.265406       16.202911       1
       12962.922       58.687982       15.945956       1
       12985.290       62.703553       15.829858       1
       13007.658       31.399611       13.321309       1
       13030.026       44.672679       15.464913       1
       13052.394       46.397821       13.640786       1
       13074.762       56.500721       15.484764       1
       13097.130       68.602061       15.202139       1
       13119.498       63.046791       15.312953       1
       13141.866       55.786779       14.966571       1
       13164.234       59.572764       15.157739       1
       13186.602       63.733530       14.831359       1
       13208.970       63.742474       15.068216       1
       13231.338       58.606260       14.659905       1
       13253.706       60.221054       14.970592       1
       13276.074       64.891701       14.615765       1
       13298.442       57.675001       14.832430       1
       13320.810       64.016842       14.541295       1
       13343.178       65.079319       14.852091       1
       13365.546       67.772440       14.487945       1
       13387.914       70.704470       14.784538       1
       13410.282       69.474355       14.490152       1
       13432.650       66.542407       14.596836       1
       13455.018       54.184953       14.397293       1
       13477.386       60.943172       14.400400       1
       13499.754       62.210013       14.159256       1
       13522.122       65.059820       15.694355       1
       13544.490       20.590250       11.409544       1
       13566.858       52.665832       12.999746       1
       13589.226       66.111920       14.106615       1
       13611.594       63.383935       14.286516       1
       13633.962       66.426864       14.082616       1
       13656.330       65.554050       14.285388       1
       13678.698       74.231262       14.157381       1
       13701.066       65.577362       14.267645       1
       13723.434       67.746578       14.100449       1
       13745.802       61.771244       15.033735       1
       13768.170       54.023203       13.973066       1
       13790.538       43.708296       13.810920       1
       13812.906       76.932115       14.070352       1
       13835.274       68.108276       14.286547       1
       13857.642       61.730872       14.173904       1
       13880.010       68.891255       14.231133       1
       13902.378       56.385251       14.062005       1
       13924.746       77.799150       14.247907       1
       13947.114       66.978707       14.024049       1
       13969.482       74.751005       14.134581       1
       13991.850       79.208597       13.875748       1
       14014.218       69.552819       13.740481       1
       14036.586       73.059278       13.784542       1
       14058.954       73.662449       13.744900       1
       14081.322       73.956103       13.386405       1
       14103.690       67.209706       13.656452       1
       14126.058       71.570194       13.421819       1
       14148.426       62.100174       13.459150       1
       14170.794       77.298660       13.387313       1
       14193.162       81.678380       13.589839       1
       14215.530       57.557952       12.049292       1
       14237.898       75.955384       13.448456       1
       14260.266       72.155405       13.562789       1
       14282.634       72.877711       4164529.3       1
       14305.002       66.472992       13.153409       1
       14327.370       71.280598       13.311511       1
       14349.738       72.803116       13.028988       1
       14372.106       70.165991       13.256062       1
       14394.474       62.949530       13.056689       1
       14416.842       63.542030       13.198810       1
       14439.210       64.623162       13.050264       1
       14461.578       68.084835       13.106465       1
       14483.946       65.195220       13.308287       1
       14506.314       78.427158       13.248008       1
       14528.682       71.016815       13.004574       1
       14551.050       76.789474       13.222951       1
       14573.418       65.647339       13.069595       1
       14595.786       73.636043       13.253502       1
       14618.154       78.518303       13.209281       1
       14640.522       65.949817       13.130265       1
       14662.890       72.467227       13.134335       1
       14685.258       71.170869       13.211455       1
       14707.626       78.524605       13.246521       1
       14729.994       76.219543       13.318319       1
       14752.362       70.770146       13.438928       1
       14774.730       71.249981       13.280623       1
       14797.098       84.551621       13.222211       1
       14819.466       63.971075       4587778.6       1
       14841.834       76.216796       13.093431       1
       14864.202       74.244339       13.175685       1
       14886.570       83.794602       13.174761       1
       14908.938       64.453049       12.991648       1
       14931.306       77.185745       12.929502       1
       14953.674       70.602518       12.899290       1
       14976.042       69.053241       12.806858       1
       14998.410       70.652748       12.923600       1
       15020.778       62.228756       12.751481       1
       15043.146       73.886967       12.977587       1
       15065.514       69.394573       12.767768       1
       15087.882       75.512414       12.959222       1
       15110.250       75.391723       12.895063       1
       15132.618       78.153050       13.013184       1
       15154.986       65.647737       12.724578       1
       15177.354       64.472448       12.821404       1
       15199.722       67.204580       12.998645       1
       15222.090       73.191106       12.842161       1
       15244.458       72.338013       12.747506       1
       15266.826       73.417727       12.867478       1
       15289.194       73.193802       12.748899       1
       15311.562       72.600543       12.897599       1
       15333.930       72.882738       12.839340       1
       15356.298       63.266205       12.777779       1
       15378.666       63.545688       12.691316       1
       15401.034       73.402838       12.878039       1
       15423.402       64.036862       12.796333       1
       15445.770       73.244436       12.939212       1
       15468.138       72.201816       12.891058       1
       15490.506       71.917453       12.975051       1
       15512.874       67.895285       12.864335       1
       15535.242       66.202652       12.971360       1
       15557.610       63.734788       13.108812       1
       15579.978       63.912300       12.894134       1
       15602.346       60.646653       13.053192       1
       15624.714       83.935429       13.118192       1
       15647.082       69.870223       13.042223       1
       15669.450       79.900072       13.128945       1
       15691.818       72.483480       13.007135       1
       15714.186       67.731142       12.979525       1
       15736.554       65.188631       13.090798       1
       15758.922       67.081294       12.899283       1
       15781.290       65.283645       12.865914       1
       15803.658       72.988994       13.010005       1
       15826.026       67.886675       12.921726       1
       15848.394       63.684527       12.947954       1
       15870.762       63.408457       13.016531       1
       15893.130       66.704354       13.025217       1
       15915.498       70.424508       13.053206       1
       15937.866       65.999435       13.030999       1
       15960.234       77.443225       13.154544       1
       15982.602       58.782149       12.983017       1
       16004.970       56.771446       13.192838       1
       16027.338       61.539960       13.055360       1
       16049.706       50.609453       13.105335       1
       16072.074       66.076880       13.086797       1
       16094.442       72.326313       13.167829       1
       16116.810       64.487475       13.188774       1
       16139.178       68.894699       13.210808       1
       16161.546       62.158435       14.097759       1
       16183.914       66.981479       13.273392       1
       16206.282       59.346171       13.259067       1
       16228.650       63.487744       13.366043       1
       16251.018       69.648125       13.469450       1
       16273.386       69.742315       13.520394       1
       16295.754       72.466932       13.533939       1
       16318.122       67.057792       13.591666       1
       16340.490       74.510815       13.690353       1
       16362.858       70.755401       13.636821       1
       16385.226       68.140359       13.657349       1
       16407.594       64.127581       13.900519       1
       16429.962       61.237886       13.706770       1
       16452.330       73.167609       13.923083       1
       16474.698       76.693078       14.172747       1
       16497.066       64.944665       14.812581       1
       16519.434       62.305438       14.725085       1
       16541.802       69.160605       15.370078       1
       16564.170       70.749174       16.199891       1
       16586.538       75.025369       17.179408       1
       16608.906       80.526242       18.519541       1
       16631.274       96.630237       20.120657       1
       16653.642       76.005476       21.868152       1
       16676.010       90.892821       24.233753       1
       16698.378       101.68041       27.210833       1
       16720.746       103.50417       30.585324       1
       16743.114       89.702259       34.629134       1
       16765.482       140.91580       39.944252       0
       16787.850       115.80261       44.909339       0
       16810.218       144.25734       50.610007       0
       16832.586       186.76663       57.200506       0
       16854.954       149.83214       63.307497       0
       16877.322       210.22099       71.201548       0
       16899.690       204.90776       78.859672       0
       16922.058       239.79265       88.059899       0
       16944.426       261.65683       98.143188       0
       16966.794       318.62784       109.12821       0
       16989.162       329.41572       41815310.       0
       17011.530       332.93277       133.37721       0
       17033.898       375.52561       146.57615       0
       17056.266       392.14145       164.19522       0
       17078.634       448.18722       182.73308       0
       17101.002       679.65871       211.28589       0
       17123.370       741.36079       240.60771       0
