#WAVELENGTH FLUX ERROR MASK
       7465.3283       1826.7930       27173.202       0
       7477.2038       10304.172       19224.925       0
       7489.0793       11319.935       22580.548       0
       7500.9548       10092.725       16757.509       0
       7512.8303       8950.8989       16051.944       0
       7524.7058       4374.1537       11034.957       0
       7536.5813       3700.3130       11693.134       0
       7548.4568       898.36982       7566.3498       0
       7560.3323       2097.8868       7512.9971       0
       7572.2078       2138.5018       4865.8470       0
       7584.0833      -726.82371       4754.8661       0
       7595.9588       1768.0427       3188.1494       0
       7607.8344       80.892969       3319.9961       0
       7619.7099       1376.7465       2308.6309       0
       7631.5854       162.11878       2452.9719       0
       7643.4609       1092.8455       1747.7568       0
       7655.3364       235.64791       1934.6100       0
       7667.2119       631.56618       1285.0664       0
       7679.0874      -183.93293       1300.1386       0
       7690.9629       289.24769       875.83737       0
       7702.8384       406.91588       915.22607       0
       7714.7139       73.752896       635.50722       0
       7726.5894       727.11219       767.53528       0
       7738.4649       286.43577       507.20103       0
       7750.3404       335.89537       578.18230       0
       7762.2159       299.88762       447.46075       0
       7774.0914       340.23144       535.79624       0
       7785.9669       409.28741       382.38291       0
       7797.8424       243.38453       414.48229       0
       7809.7179       345.17751       302.48315       0
       7821.5934       101.12290       336.60279       0
       7833.4689       161.50901       244.63136       0
       7845.3444       236.72618       274.40777       0
       7857.2199       151.23154       200.05890       0
       7869.0954       173.59563       226.55997       0
       7880.9709       151.98858       168.72080       0
       7892.8464       248.46270       195.36119       0
       7904.7219       137.00146       149.84636       0
       7916.5974       116.57096       173.40682       0
       7928.4729       126.57941       132.61703       0
       7940.3484       161.92259       157.94700       0
       7952.2239       162.92304       123.15766       0
       7964.0994       100.30130       143.12564       0
       7975.9749       154.26592       111.35948       0
       7987.8504       103.18151       132.60085       0
       7999.7259       54.481726       105.46675       0
       8011.6014       194.64721       132.18262       0
       8023.4769       89.074467       97.406237       0
       8035.3524       99.755986       118.19949       0
       8047.2279       38.174665       95.028304       0
       8059.1034       93.387994       114.76798       0
       8070.9789       151.55755       90.722912       0
       8082.8544       58.226702       110.18775       0
       8094.7300       108.99653       87.683641       0
       8106.6055       117.49815       106.75710       0
       8118.4810       71.223751       83.970423       0
       8130.3565       88.114995       103.84409       0
       8142.2320       120.53263       81.190143       0
       8154.1075       120.54346       100.28296       1
       8165.9830       70.857411       78.489910       1
       8177.8585       122.64378       96.583315       1
       8189.7340       81.736076       75.490036       1
       8201.6095       93.837085       93.449054       1
       8213.4850       83.695472       72.643287       1
       8225.3605       91.446971       89.596115       1
       8237.2360       78.146042       69.318286       1
       8249.1115       120.75034       88.145423       1
       8260.9870       84.850235       65.814185       1
       8272.8625       89.885563       81.409797       1
       8284.7380       73.604528       63.980810       1
       8296.6135       88.233484       77.204289       1
       8308.4890       62.166675       59.861495       1
       8320.3645       74.426367       74.153155       1
       8332.2400       67.717541       58.535574       1
       8344.1155       62.476051       71.951175       1
       8355.9910       72.836360       57.129899       1
       8367.8665       46.872817       70.157337       1
       8379.7420       84.405743       55.033484       1
       8391.6175       104.96345       69.595213       1
       8403.4930       105.34620       53.804152       1
       8415.3685       72.409544       66.711049       1
       8427.2440       74.134894       52.233816       1
       8439.1195       62.869821       15356063.       1
       8450.9950       68.997804       52.317639       1
       8462.8705       70.563923       66.017054       1
       8474.7460       102.31450       49.641459       1
       8486.6215       67.942294       77.379870       1
       8498.4970       93.400933       50.339393       1
       8510.3725       83.675195       59.999281       1
       8522.2480       95.099054       47.340680       1
       8534.1235       79.896951       58.637669       1
       8545.9990       69.281743       47.787970       1
       8557.8745       64.190729       58.017689       1
       8569.7501       86.108867       45.777077       1
       8581.6256       93.613615       57.726090       1
       8593.5011       95.067548       45.541227       1
       8605.3766       72.255487       65.558277       1
       8617.2521       95.654424       45.864985       1
       8629.1276       77.930211       56.601222       1
       8641.0031       71.161143       44.666596       1
       8652.8786       92.243557       56.300753       1
       8664.7541       74.671287       45.881074       1
       8676.6296       83.519853       54.991187       1
       8688.5051       91.172922       43.002620       1
       8700.3806       70.952559       54.242884       1
       8712.2561       92.531333       42.189834       1
       8724.1316       84.336899       51.203514       1
       8736.0071       73.870266       40.583027       1
       8747.8826       93.277426       49.818996       1
       8759.7581       76.923013       41.137505       1
       8771.6336       65.663543       48.465372       1
       8783.5091       77.310590       40.263215       1
       8795.3846       73.529173       47.754497       1
       8807.2601       79.769467       37.383180       1
       8819.1356       84.134290       46.563166       1
       8831.0111       79.289534       36.604803       1
       8842.8866       65.946502       49.667428       1
       8854.7621       99.950733       36.001914       1
       8866.6376       74.452559       44.642740       1
       8878.5131       91.259283       35.439525       1
       8890.3886       77.871037       43.686546       1
       8902.2641       81.043683       35.020743       1
       8914.1396       75.961433       43.031047       1
       8926.0151       96.039678       35.304608       1
       8937.8906       73.856732       45.154982       1
       8949.7661       80.104826       34.524518       1
       8961.6416       101.71998       42.028867       1
       8973.5171       90.008109       33.024677       1
       8985.3926       66.613006       40.793111       1
       8997.2681       72.539821       32.379324       1
       9009.1436       89.702625       40.519133       1
       9021.0191       86.471116       34.558429       1
       9032.8946       71.440134       40.155162       1
       9044.7701       70.990963       31.808764       1
       9056.6457       82.248896       39.896253       1
       9068.5212       79.737178       31.604796       1
       9080.3967       87.553726       39.683432       1
       9092.2722       79.327291       30.998478       1
       9104.1477       87.534834       38.923380       1
       9116.0232       57.539721       31.008280       1
       9127.8987       50.979424       38.674052       1
       9139.7742       64.577276       29.756673       1
       9151.6497       74.982011       36.644220       1
       9163.5252       74.124386       29.385955       1
       9175.4007       70.131674       38.167922       1
       9187.2762       48.613688       28.647052       1
       9199.1517       67.143613       37.318813       1
       9211.0272       70.863642       28.341740       1
       9222.9027       70.301584       34.951372       1
       9234.7782       79.323813       27.945867       1
       9246.6537       74.065722       34.674869       1
       9258.5292       58.474161       27.572602       1
       9270.4047       60.629222       34.242648       1
       9282.2802       56.571243       28.289034       1
       9294.1557       65.294569       33.547696       1
       9306.0312       60.880831       27.113231       1
       9317.9067       64.803566       34.273280       1
       9329.7822       69.113119       26.695815       1
       9341.6577       81.192354       33.349012       1
       9353.5332       73.777176       26.600873       1
       9365.4087       76.856395       33.041038       1
       9377.2842       62.925621       26.739646       1
       9389.1597       64.142299       32.586505       1
       9401.0352       78.308826       27.288693       1
       9412.9107       66.181523       32.134071       1
       9424.7862       70.848776       25.732129       1
       9436.6617       66.493578       36.323899       1
       9448.5372       70.852460       25.446182       1
       9460.4127       67.864765       32.692230       1
       9472.2882       70.825048       25.216361       1
       9484.1637       75.507957       31.102214       1
       9496.0392       77.077860       24.952191       1
       9507.9147       69.261280       30.690318       1
       9519.7902       70.469419       25.772453       1
       9531.6657       80.810380       31.424950       1
       9543.5413       64.434547       24.370296       1
       9555.4168       72.535049       30.910977       1
       9567.2923       63.730225       24.745692       1
       9579.1678       65.785741       29.734078       1
       9591.0433       68.929546       23.924133       1
       9602.9188       51.578155       29.502143       1
       9614.7943       71.227931       24.046402       1
       9626.6698       76.819583       29.622938       1
       9638.5453       78.402624       23.830164       1
       9650.4208       56.038710       30.321333       1
       9662.2963       71.851866       23.332141       1
       9674.1718       70.796227       29.311718       1
       9686.0473       64.766512       23.119866       1
       9697.9228       71.909943       28.740549       1
       9709.7983       56.845236       23.334233       1
       9721.6738       64.648203       29.876040       1
       9733.5493       57.454817       22.650298       1
       9745.4248       76.369835       30.786450       1
       9757.3003       66.710612       22.615561       1
       9769.1758       67.690562       27.843994       1
       9781.0513       60.539707       23.329067       1
       9792.9268       71.362537       27.725701       1
       9804.8023       68.275133       22.273030       1
       9816.6778       58.996301       27.490349       1
       9828.5533       55.702474       22.136183       1
       9840.4288       63.244421       27.544326       1
       9852.3043       67.330640       22.037254       1
       9864.1798       62.591898       27.458343       1
       9876.0553       50.118912       21.761479       1
       9887.9308       56.499809       27.077439       1
       9899.8063       61.037625       21.803814       1
       9911.6818       42.715734       26.872887       1
       9923.5573       69.532344       22.439954       1
       9935.4328       52.190695       27.034588       1
       9947.3083       52.806062       21.503679       1
       9959.1838       58.415258       26.712955       1
       9971.0593       57.682699       21.209820       1
       9982.9348       55.463634       26.310530       1
       9994.8103       48.312967       21.200357       1
       10006.686       65.824259       26.026051       1
       10018.561       68.897487       21.281347       1
       10030.437       57.385260       25.892770       1
       10042.312       63.846261       20.723526       1
       10054.188       55.433261       25.656945       1
       10066.063       61.887390       20.628255       1
       10077.939       64.218728       27.333907       1
       10089.814       60.455601       20.538984       1
       10101.690       58.327112       25.977648       1
       10113.565       54.110566       22.010607       1
       10125.441       43.199913       26.954912       1
       10137.316       56.528651       20.343824       1
       10149.192       57.000739       25.288166       1
       10161.067       60.919928       20.158828       1
       10172.943       51.177730       25.175932       1
       10184.818       66.599970       20.062951       1
       10196.694       54.519615       25.073143       1
       10208.569       53.610636       19.838298       1
       10220.445       47.407196       24.866927       1
       10232.320       49.562362       19.639632       1
       10244.196       48.339966       24.486185       1
       10256.071       51.908999       19.482466       1
       10267.947       48.556338       24.370087       1
       10279.822       55.445851       19.507634       1
       10291.698       60.353167       24.100666       1
       10303.573       54.995382       19.061185       1
       10315.449       47.109463       26.027920       1
       10327.324       57.854153       18.960665       1
       10339.200       50.746762       23.753806       1
       10351.075       52.019067       19.371862       1
       10362.951       50.256023       23.875769       1
       10374.826       55.546890       18.855418       1
       10386.702       52.374841       23.949579       1
       10398.577       54.635473       18.870503       1
       10410.453       54.269961       23.675948       1
       10422.328       57.191676       18.770932       1
       10434.204       62.062244       23.813863       1
       10446.079       47.652733       18.603466       1
       10457.955       48.030478       23.474364       1
       10469.830       52.391458       18.647477       1
       10481.706       46.261087       23.610971       1
       10493.581       54.504696       18.959425       1
       10505.457       54.191180       23.555831       1
       10517.332       52.793356       18.701954       1
       10529.208       52.989334       24.272935       1
       10541.083       50.217401       18.707991       1
       10552.959       60.138953       23.678643       1
       10564.834       58.719535       19.228383       1
       10576.710       49.784167       23.587182       1
       10588.585       48.071127       18.969556       1
       10600.461       54.993930       23.411102       1
       10612.336       55.948223       18.498862       1
       10624.212       45.625593       23.222568       1
       10636.087       57.105618       18.309386       1
       10647.963       64.848743       25.183571       1
       10659.838       46.177630       18.061402       1
       10671.714       54.257381       22.761679       1
       10683.589       57.809464       18.040839       1
       10695.465       66.089427       22.890458       1
       10707.340       46.776955       17.962405       1
       10719.216       53.487630       22.819507       1
       10731.091       54.349861       17.965779       1
       10742.967       51.911535       22.649667       1
       10754.843       53.017897       17.932039       1
       10766.718       56.609204       22.655813       1
       10778.594       60.199454       17.940503       1
       10790.469       56.996141       22.635732       1
       10802.345       58.260521       17.903823       1
       10814.220       49.992220       23.787282       1
       10826.096       55.549710       18.190351       1
       10837.971       47.194865       22.405950       1
       10849.847       63.193689       18.214995       1
       10861.722       53.763218       22.218552       1
       10873.598       49.468537       17.598893       1
       10885.473       53.363055       22.237475       1
       10897.349       63.978161       17.642662       1
       10909.224       60.288552       21.972080       1
       10921.100       58.855449       17.553684       1
       10932.975       52.552499       21.986105       1
       10944.851       59.048430       17.578781       1
       10956.726       50.723535       22.103425       1
       10968.602       59.415056       17.581801       1
       10980.477       56.207531       22.139124       1
       10992.353       50.855935       17.540588       1
       11004.228       66.434146       22.179641       1
       11016.104       57.720577       17.643606       1
       11027.979       51.441073       21.961740       1
       11039.855       61.604443       17.594975       1
       11051.730       47.558670       21.907009       1
       11063.606       49.190397       18.398527       1
       11075.481       58.805913       21.852525       1
       11087.357       59.793920       17.620775       1
       11099.232       52.241954       21.806537       1
       11111.108       67.227385       18.193291       1
       11122.983       64.650611       22.336750       1
       11134.859       62.920065       17.665748       1
       11146.734       59.002183       22.067180       1
       11158.610       49.463429       17.593555       1
       11170.485       52.102344       22.018475       1
       11182.361       53.640421       17.777222       1
       11194.236       53.015486       21.983482       1
       11206.112       51.909949       17.810504       0
       11217.987       51.023467       21.773379       0
       11229.863       57.359097       17.786527       0
       11241.738       61.031008       21.944708       0
       11253.614       52.278145       17.727762       0
       11265.489       55.060469       23.101358       0
       11277.365       60.877432       17.676552       0
       11289.240       63.563897       21.870377       0
       11301.116       67.567799       17.693811       0
       11312.991       67.908096       21.985023       0
       11324.867       47.485809       18.230194       0
       11336.742       65.386200       22.581949       0
       11348.618       64.277566       18.673481       0
       11360.493       58.792127       26.157301       0
       11372.369       62.859718       20.449078       0
       11384.244       68.739423       27.146159       0
       11396.120       70.785192       23.708298       0
       11407.995       72.647730       32.528808       0
       11419.871       91.039283       29.200877       0
       11431.746       103.26683       40.763314       0
       11443.622       118.07515       38.777846       0
       11455.497       129.67525       52.354469       0
       11467.373       129.94964       47.630551       0
       11479.248       162.53835       66.616558       0
       11491.124       173.67640       59.648922       0
       11502.999       130.82526       81.803286       0
       11514.875       181.11099       75.692684       0
       11526.750       221.31691       100.89576       0
       11538.626       221.94534       93.014577       0
       11550.501       193.07482       130.27242       0
       11562.377       359.13332       130.63185       0
       11574.252       367.23649       187.10888       0
       11586.128       469.51047       185.20382       0
       11598.003       588.15420       284.64056       0
       11609.879       722.38571       281.46213       0
       11621.754       545.45695       427.12553       0
       11633.630       998.63490       425.21649       0
       11645.505       1220.4211       628.52544       0
       11657.381       1260.8358       601.89462       0
       11669.256       1737.9080       926.35388       0
       11681.132       2122.4118       1004.9251       0
       11693.007       3027.4906       1548.4407       0
       11704.883       4494.3186       1607.6379       0
       11716.758       4984.0983       2591.4921       0
       11728.634       5998.1715       2783.7660       0
