#WAVELENGTH FLUX ERROR MASK
       10166.923       1526.6150       3290.1777       0
       10189.291      -66.059610       3030.9986       0
       10211.659       1161.5219       2863.0452       0
       10234.027       20.531982       2442.2463       0
       10256.395       1422.4591       2155.0380       0
       10278.763       356.81303       1827.2472       0
       10301.131       697.93382   3.2830512e+08       0
       10323.499      -482.88784       1281.0291       0
       10345.867       572.65533       1297.8307       0
       10368.235       535.71443       1173.8420       0
       10390.603       475.57898       1089.4667       0
       10412.971       168.41529       974.56125       0
       10435.339       383.30340       890.09190       0
       10457.707      -83.610544       757.75297       0
       10480.075       37.378433       659.54720       0
       10502.443      -23.412175       555.17002       0
       10524.811       47.852051       482.54168       0
       10547.179      -147.90062       411.77385       0
       10569.547      -133.17828       354.18223       0
       10591.915       139.84586       328.92885       0
       10614.283       83.632721       294.49037       0
       10636.651       176.04602       266.39730       0
       10659.019       201.39026       238.20046       0
       10681.387       143.83637       204.55861       0
       10703.755       185.78916       178.12748       0
       10726.123       96.967155       147.13872       0
       10748.491       90.108780       120.44627       0
       10770.859       78.662997       103.49648       0
       10793.227       44.924370       87.615344       0
       10815.595       62.285819       74.993322       0
       10837.963       45.247232       65.939755       0
       10860.331       51.178319       58.517758       0
       10882.699       59.898823       53.705576       0
       10905.067       37.331392       49.178137       0
       10927.435       31.898130       45.956849       0
       10949.803       46.525866       43.048194       0
       10972.171       64.336657       7916439.8       0
       10994.539       48.979530       37.973182       0
       11016.907       25.796853       34.275567       1
       11039.275       45.266710       32.773334       1
       11061.643       45.802581       31.415619       1
       11084.011       26.289982       27.890792       1
       11106.379       32.651445       28.433786       1
       11128.747       40.877439       27.173917       1
       11151.115       29.245128       26.653787       1
       11173.483       41.139100       25.861748       1
       11195.851       44.478086       25.830007       1
       11218.219       49.333295       25.133601       1
       11240.587       35.996375       25.193274       1
       11262.955       34.017034       24.755041       1
       11285.323       42.501269       24.750992       1
       11307.691       50.616691       24.248264       1
       11330.059       26.318744       23.117152       1
       11352.427       42.079122       23.786291       1
       11374.795       34.385363       23.573258       1
       11397.163       38.098287       23.195608       1
       11419.531       31.142990       23.158850       1
       11441.899       41.079629       22.921005       1
       11464.267       29.343316       22.821991       1
       11486.635       30.614967       21.712328       1
       11509.003       28.855239       22.733512       1
       11531.371       39.847093       21.981728       1
       11553.739       45.132561       22.812329       1
       11576.107       43.250671       22.372623       1
       11598.475       46.228550       22.504060       1
       11620.843       43.693162       21.885387       1
       11643.211       42.498624       22.157832       1
       11665.579       50.654499       22.433542       1
       11687.947       46.934746       21.793792       1
       11710.315       34.126640       21.848073       1
       11732.683       43.575357       21.224916       1
       11755.050       37.760633       19.702370       1
       11777.418       30.013143       20.620106       1
       11799.786       39.792916       20.316119       1
       11822.154       39.858009       20.299021       1
       11844.522       32.248426       19.955595       1
       11866.890       42.588923       20.642960       1
       11889.258       34.718834       19.704613       1
       11911.626       46.934564       19.769771       1
       11933.994       37.481741       19.568529       1
       11956.362       24.010101       18.349748       1
       11978.730       35.824652       19.199109       1
       12001.098       36.037272       19.031812       1
       12023.466       36.239215       18.817264       1
       12045.834       32.343346       17.981271       1
       12068.202       41.277489       18.761601       1
       12090.570       31.516782       18.570262       1
       12112.938       43.808877       18.372715       1
       12135.306       46.387162       18.543761       1
       12157.674       40.682102       18.189102       1
       12180.042       43.186429       18.348838       1
       12202.410       31.466327       17.019394       1
       12224.778       38.164163       18.036199       1
       12247.146       35.119300       17.792095       1
       12269.514       37.515057       17.881400       1
       12291.882       37.508285       17.787868       1
       12314.250       48.366247       17.812013       1
       12336.618       45.315064       17.881528       1
       12358.986       33.615832       17.007190       1
       12381.354       46.117022       17.546471       1
       12403.722       30.261659       17.365191       1
       12426.090       37.562248       17.272253       1
       12448.458       38.857564       17.264870       1
       12470.826       36.864883       17.189819       1
       12493.194       44.348671       16.558773       1
       12515.562       40.052118       17.056128       1
       12537.930       36.343315       16.987577       1
       12560.298       48.932666       17.055547       1
       12582.666       43.329968       16.995476       1
       12605.034       36.899293       16.705179       1
       12627.402       41.353043       17.051337       1
       12649.770       41.350753       16.747568       1
       12672.138       38.357395       16.737568       1
       12694.506       35.549998       16.519554       1
       12716.874       42.348613       16.634855       1
       12739.242       36.599285       16.240449       1
       12761.610       37.996773       16.318100       1
       12783.978       56.765608       16.240505       1
       12806.346       48.515274       16.267176       1
       12828.714       50.476178       16.061607       1
       12851.082       41.375141       16.082174       1
       12873.450       51.786036       16.076863       1
       12895.818       48.396316       15.477417       1
       12918.186       55.348613       15.946946       1
       12940.554       50.466039       15.908528       1
       12962.922       44.299941       15.639232       1
       12985.290       43.239245       15.617921       1
       13007.658       52.639531       15.735508       1
       13030.026       42.775383       15.459304       1
       13052.394       22.934122       13.887914       1
       13074.762       46.246390       15.389358       1
       13097.130       23.368849       13.945257       1
       13119.498       41.058040       14.729606       1
       13141.866       40.137068       15.217116       1
       13164.234       33.559384       14.555287       1
       13186.602       40.863878       14.943374       1
       13208.970       42.285154       14.871785       1
       13231.338       53.312698       14.922891       1
       13253.706       36.646402       14.692471       1
       13276.074       42.823698       14.790477       1
       13298.442       43.560604       2767604.5       1
       13320.810       36.989903       14.325922       1
       13343.178       41.632332       2755809.7       1
       13365.546       46.121087       14.547327       1
       13387.914       38.123201       2736186.9       1
       13410.282       49.894220       14.523207       1
       13432.650       46.945690       14.439783       1
       13455.018       47.263766       14.335207       1
       13477.386       43.083624       14.272716       1
       13499.754       41.726464       14.110523       1
       13522.122       39.954487       14.159941       1
       13544.490       48.772060       14.480480       1
       13566.858       47.964990       14.154133       1
       13589.226       49.180053       14.598820       1
       13611.594       42.239021       14.223442       1
       13633.962       45.004666       14.502020       1
       13656.330       56.632764       14.223962       1
       13678.698       48.619851       14.276752       1
       13701.066       49.374045       14.182355       1
       13723.434       47.602525       14.192550       1
       13745.802       49.789571       14.138406       1
       13768.170       46.367962       13.590474       1
       13790.538       51.299944       14.218763       1
       13812.906       46.334537       14.192677       1
       13835.274       47.327297       14.140337       1
       13857.642       42.581527       14.132490       1
       13880.010       44.967003       14.021458       1
       13902.378       44.491997       14.015422       1
       13924.746       45.796446       13.985232       1
       13947.114       47.475189       13.975257       1
       13969.482       52.035169       13.966177       1
       13991.850       43.321758       13.797570       1
       14014.218       61.428983       13.884364       1
       14036.586       56.518602       13.749990       1
       14058.954       43.789568       12.713099       1
       14081.322       52.820783       13.573592       1
       14103.690       44.307189       13.496715       1
       14126.058       59.450170       13.633993       1
       14148.426       54.291942       13.532275       1
       14170.794       45.318655       12.853775       1
       14193.162       43.044878       13.220631       1
       14215.530       48.980189       13.458146       1
       14237.898       45.482113       13.310881       1
       14260.266       48.627996       13.417081       1
       14282.634       43.773574       12.777029       1
       14305.002       52.630625       13.201058       1
       14327.370       53.250034       13.107745       1
       14349.738       49.630895       12.941230       1
       14372.106       54.380523       13.076176       1
       14394.474       42.547966       12.120444       1
       14416.842       50.301301       13.119641       1
       14439.210       49.066927       12.928245       1
       14461.578       51.147035       13.028059       1
       14483.946       51.692415       13.027273       1
       14506.314       53.868523       13.054854       1
       14528.682       46.239909       13.055712       1
       14551.050       46.987280       13.002871       1
       14573.418       46.395929       12.971324       1
       14595.786       46.420821       12.998800       1
       14618.154       50.107889       12.932563       1
       14640.522       49.237097       13.030988       1
       14662.890       43.437606       13.082083       1
       14685.258       52.324676       13.044744       1
       14707.626       40.640233       12.960906       1
       14729.994       55.070805       13.349802       1
       14752.362       48.645541       13.013292       1
       14774.730       40.185306       12.707084       1
       14797.098       51.362040       13.098592       1
       14819.466       51.225782       13.028927       1
       14841.834       56.328559       13.021404       1
       14864.202       50.815104       12.988233       1
       14886.570       45.827661       2517406.2       1
       14908.938       47.730657       12.851564       1
       14931.306       50.540284       12.883292       1
       14953.674       51.095727       13.053247       1
       14976.042       46.486058       12.618261       1
       14998.410       47.774235       12.670710       1
       15020.778       51.169646       12.576707       1
       15043.146       43.540001       12.642029       1
       15065.514       46.503273       12.778524       1
       15087.882       52.551343       12.709204       1
       15110.250       39.349050       12.590170       1
       15132.618       48.602509       12.630637       1
       15154.986       42.949716       12.436932       1
       15177.354       42.770111       12.136929       1
       15199.722       46.775225       12.469824       1
       15222.090       41.699008       12.525214       1
       15244.458       51.208091       12.489339       1
       15266.826       45.142026       12.609102       1
       15289.194       47.367351       12.465600       1
       15311.562       49.530395       12.654587       1
       15333.930       44.010661       12.465020       1
       15356.298       46.407796       12.661628       1
       15378.666       44.279608       12.598620       1
       15401.034       50.648468       12.722448       1
       15423.402       43.310526       12.528653       1
       15445.770       53.130596       12.744852       1
       15468.138       41.310198       12.052452       1
       15490.506       48.401940       12.748605       1
       15512.874       44.118746       12.743659       1
       15535.242       45.377778       12.727075       1
       15557.610       47.865907       12.583227       1
       15579.978       47.038090       12.711729       1
       15602.346       41.029650       12.528446       1
       15624.714       45.285225       12.703499       1
       15647.082       45.211701       12.487258       1
       15669.450       47.937667       12.657364       1
       15691.818       46.803868       12.560653       1
       15714.186       53.693709       12.679550       1
       15736.554       44.239824       12.423101       1
       15758.922       41.988058       12.056784       1
       15781.290       52.329064       12.444151       1
       15803.658       50.426991       12.613744       1
       15826.026       42.829756       12.424561       1
       15848.394       48.174357       12.614463       1
       15870.762       47.015469       12.551195       1
       15893.130       48.763340       12.684356       1
       15915.498       47.177024       12.508885       1
       15937.866       51.561280       12.748857       1
       15960.234       46.135395       12.516185       1
       15982.602       51.461663       12.803209       1
       16004.970       44.482421       2367154.8       1
       16027.338       46.175428       12.726327       1
       16049.706       47.096927       12.585873       1
       16072.074       45.182615       12.737893       1
       16094.442       51.439555       2375765.0       1
       16116.810       54.148502       12.920859       1
       16139.178       45.589984       12.907575       1
       16161.546       44.688695       12.957637       1
       16183.914       47.863926       12.960834       1
       16206.282       45.878678       13.027048       1
       16228.650       54.200353       12.937652       1
       16251.018       42.224614       13.041153       1
       16273.386       44.948746       13.101095       1
       16295.754       55.363523       13.262314       1
       16318.122       41.569547       13.072356       1
       16340.490       51.154406       13.300574       1
       16362.858       40.915616       13.002788       1
       16385.226       49.559821       2459659.6       1
       16407.594       42.844888       13.077183       1
       16429.962       41.342467       13.337331       1
       16452.330       43.398765       12.965729       1
       16474.698       49.517575       13.755169       1
       16497.066       45.506275       13.889680       1
       16519.434       50.594165       14.472058       1
       16541.802       57.447371       14.891379       1
       16564.170       45.646568       15.721366       1
       16586.538       53.188327       16.527412       1
       16608.906       53.643776       18.287574       1
       16631.274       53.633706       19.387515       1
       16653.642       69.199039       22.620359       1
       16676.010       69.299288       23.513701       1
       16698.378       60.209061       27.839240       1
       16720.746       98.150252       29.808393       1
       16743.114       93.098526       35.500567       1
       16765.482       121.88339       38.617657       0
       16787.850       114.47154       44.120585       0
       16810.218       136.45455       50.027851       0
       16832.586       124.38183       55.914938       0
       16854.954       95.691442       61.176283       0
       16877.322       162.90489       69.957086       0
       16899.690       146.81606       14498249.       0
       16922.058       186.90330       86.584532       0
       16944.426       256.25850       95.599273       0
       16966.794       213.80310       107.80170       0
       16989.162       282.95796       119.62788       0
       17011.530       237.82815       129.06561       0
       17033.898       349.18114       145.71048       0
       17056.266       377.13305       164.15474       0
       17078.634       395.28630       181.79403       0
       17101.002       472.47367       209.24816       0
       17123.370       528.20812       239.17195       0
