#WAVELENGTH FLUX ERROR MASK
       10210.799       4716.1588       3113.1298       0
       10234.281       3635.0128       2475.9688       0
       10257.763      -70.204483       2270.0386       0
       10281.244       1785.6884       1789.1691       0
       10304.726       608.38025       1698.1243       0
       10328.208       525.07327       1383.7533       0
       10351.690       964.31325       1366.6288       0
       10375.172       1086.9687       1147.4430       0
       10398.654       1552.3378       1140.0043       0
       10422.136       1259.1113       948.26794       0
       10445.617       1205.6231       900.39383       0
       10469.099       1130.0665       706.59971       0
       10492.581       304.18971       638.51814       0
       10516.063       532.33827       496.66356       0
       10539.545       21.392515       455.37446       0
       10563.027       326.56076       367.47558       0
       10586.509       110.31625       296.95239       0
       10609.990       288.31943       289.28091       0
       10633.472       177.65747       281.52566       0
       10656.954       89.414940       230.47357       0
       10680.436       182.00630       220.91570       0
       10703.918       205.34491       175.57265       0
       10727.400       118.06966       159.06327       0
       10750.882       84.927235       121.33664       0
       10774.363       125.54092       109.82419       0
       10797.845       130.39149       85.209344       0
       10821.327       88.404041       67.280973       0
       10844.809       79.335984       63.160954       0
       10868.291       41.484617       61.160470       0
       10891.773       120.61169       52.446027       0
       10915.255       112.82427       52.603441       0
       10938.736       92.018004       45.112307       0
       10962.218       79.302961       45.471733       0
       10985.700       100.83845       39.516608       0
       11009.182       106.60777       39.971366       1
       11032.664       100.95362       34.247227       1
       11056.146       87.175216       34.884683       1
       11079.627       76.799186       30.139610       1
       11103.109       78.426224       31.259979       1
       11126.591       106.56444       27.942678       1
       11150.073       99.093165       29.424585       1
       11173.555       45.762207       22.549148       1
       11197.037       80.735701       28.208920       1
       11220.519       73.616882       25.519776       1
       11244.000       90.384412       27.655655       1
       11267.482       81.181062       25.194779       1
       11290.964       62.770820       26.743856       1
       11314.446       45.485092       21.339943       1
       11337.928       70.172675       26.330728       1
       11361.410       74.477941       21.005405       1
       11384.892       61.873062       25.721049       1
       11408.373       95.732973       23.826000       1
       11431.855       62.725639       25.319191       1
       11455.337       86.831371       23.476406       1
       11478.819       54.537144       22.241261       1
       11502.301       79.755361       23.100607       1
       11525.783       69.316120       24.741075       1
       11549.265       59.250151       19.857527       1
       11572.746       93.928123       24.947488       1
       11596.228       95.514325       22.942862       1
       11619.710       86.299269       24.527660       1
       11643.192       96.961685       22.484147       1
       11666.674       99.934595       24.389637       1
       11690.156       101.03746       22.053027       1
       11713.638       99.310698       23.688027       1
       11737.119       83.827081       21.423155       1
       11760.601       115.52617       23.359108       1
       11784.083       93.072987       21.004183       1
       11807.565       77.533624       22.432027       1
       11831.047       87.823371       20.610118       1
       11854.529       71.710652       21.896797       1
       11878.011       56.966751       17.542421       1
       11901.492       72.954278       21.600659       1
       11924.974       72.089047       19.790197       1
       11948.456       72.349619       21.233715       1
       11971.938       77.024420       19.526146       1
       11995.420       84.573951       21.039890       1
       12018.902       76.723902       19.257629       1
       12042.384       84.500071       20.786612       1
       12065.865       75.045718       18.999227       1
       12089.347       78.656219       20.522635       1
       12112.829       73.733396       18.762340       1
       12136.311       63.175626       20.076910       1
       12159.793       77.665072       18.570894       1
       12183.275       81.112292       20.113680       1
       12206.756       80.467019       18.372491       1
       12230.238       87.823931       19.974508       1
       12253.720       84.134174       18.272058       1
       12277.202       74.798402       19.497000       1
       12300.684       79.767825       18.053132       1
       12324.166       89.398677       19.470339       1
       12347.648       62.472419       17.607316       1
       12371.129       72.152065       19.121641       1
       12394.611       76.660778       17.668468       1
       12418.093       62.816084       18.825346       1
       12441.575       78.662712       17.455175       1
       12465.057       86.019759       18.929551       1
       12488.539       84.199846       17.430870       1
       12512.021       84.950429       18.813574       1
       12535.502       89.288218       17.384641       1
       12558.984       85.430513       18.727174       1
       12582.466       81.350742       17.093974       1
       12605.948       48.325555       15.606575       1
       12629.430       80.621576       17.062385       1
       12652.912       87.399784       18.514853       1
       12676.394       85.951339       16.949227       1
       12699.875       76.708186       18.297506       1
       12723.357       90.174851       16.903489       1
       12746.839       88.390742       18.158604       1
       12770.321       87.160434       16.551581       1
       12793.803       71.036679       17.690231       1
       12817.285       84.000518       16.353341       1
       12840.767       92.177337       17.795539       1
       12864.248       81.177194       16.266886       1
       12887.730       85.963863       17.610060       1
       12911.212       51.692393       13.843539       1
       12934.694       93.210496       17.575298       1
       12958.176       77.518272       15.938185       1
       12981.658       86.260064       17.291741       1
       13005.140       69.708601       15.632688       1
       13028.621       81.845224       16.986026       1
       13052.103       79.077129       15.444636       1
       13075.585       66.957565       16.625864       1
       13099.067       77.594193       15.472318       1
       13122.549       80.604573       16.737417       1
       13146.031       84.363465       15.398150       1
       13169.512       88.396744       16.625423       1
       13192.994       82.799087       15.213845       1
       13216.476       77.166635       16.317088       1
       13239.958       79.128097       14.996305       1
       13263.440       89.327122       16.317604       1
       13286.922       89.424443       14.989658       1
       13310.404       57.145697       13.681137       1
       13333.885       78.342400       14.831315       1
       13357.367       61.157946       15.838568       1
       13380.849       73.664028       14.764898       1
       13404.331       54.528338       15.662248       1
       13427.813       78.266295       14.613989       1
       13451.295       83.093252       15.834765       1
       13474.777       71.688009       14.408877       1
       13498.258       58.009428       15.383002       1
       13521.740       63.735610       14.131823       1
       13545.222       83.251988       15.702333       1
       13568.704       66.033342       14.298081       1
       13592.186       70.198380       15.520637       1
       13615.668       77.301402       14.300670       1
       13639.150       65.961144       15.478174       1
       13662.631       78.711895       14.414684       1
       13686.113       76.006811       15.529577       1
       13709.595       63.110773       14.198692       1
       13733.077       66.050149       15.472129       1
       13756.559       70.898768       14.314119       1
       13780.041       89.624854       15.807948       1
       13803.523       70.171790       14.326266       1
       13827.004       64.448318       15.411226       1
       13850.486       49.726980       12.372318       1
       13873.968       61.527574       15.319568       1
       13897.450       73.167095       14.267689       1
       13920.932       73.878307       15.392799       1
       13944.414       72.835274       14.227072       1
       13967.896       61.374163       15.162676       1
       13991.377       68.903715       14.048703       1
       14014.859       63.908520       15.035054       1
       14038.341       63.364339       13.825406       1
       14061.823       77.511524       15.037722       1
       14085.305       73.045302       4618582.4       1
       14108.787       70.684940       14.858743       1
       14132.269       72.442391       13.730014       1
       14155.750       80.807560       14.916233       1
       14179.232       74.194422       13.629528       1
       14202.714       70.406615       14.788782       1
       14226.196       66.237094       13.516772       1
       14249.678       84.489208       14.752474       1
       14273.160       50.359541       11.501890       1
       14296.641       62.109175       14.436058       1
       14320.123       65.977636       13.239331       1
       14343.605       80.364546       14.479095       1
       14367.087       76.946181       13.332073       1
       14390.569       76.749995       14.404085       1
       14414.051       64.608381       13.177872       1
       14437.533       60.748771       14.223066       1
       14461.014       75.923322       13.279800       1
       14484.496       69.216962       14.294054       1
       14507.978       76.594295       13.283270       1
       14531.460       63.289739       14.187829       1
       14554.942       68.315710       13.165789       1
       14578.424       53.513368       12.143013       1
       14601.906       64.253809       13.140528       1
       14625.387       45.515891       12.040341       1
       14648.869       74.632590       13.250381       1
       14672.351       76.226152       14.354976       1
       14695.833       75.910278       13.290924       1
       14719.315       81.256492       14.378504       1
       14742.797       87.759592       13.412333       1
       14766.279       72.871264       14.355119       1
       14789.760       80.277778       13.323843       1
       14813.242       73.762914       14.356862       1
       14836.724       61.785258       11.511030       1
       14860.206       78.366087       14.292271       1
       14883.688       72.909311       13.114947       1
       14907.170       69.658821       14.162318       1
       14930.652       45.850130       11.161073       1
       14954.133       68.892784       13.954499       1
       14977.615       66.643168       12.796684       1
       15001.097       70.581928       13.999212       1
       15024.579       52.600503       12.618910       1
       15048.061       65.333293       4307790.7       1
       15071.543       78.879379       12.853620       1
       15095.025       73.811713       13.927738       1
       15118.506       69.533458       12.815278       1
       15141.988       68.500007       13.835948       1
       15165.470       66.689237       12.799618       1
       15188.952       70.750691       13.805439       1
       15212.434       69.758061       12.740445       1
       15235.916       74.169348       13.803700       1
       15259.397       74.721937       12.768608       1
       15282.879       68.746559       13.724904       1
       15306.361       72.497637       12.721864       1
       15329.843       72.246016       13.734840       1
       15353.325       72.948674       12.674890       1
       15376.807       61.038409       13.685223       1
       15400.289       55.337516       11.085690       1
       15423.770       77.584881       13.862090       1
       15447.252       71.986856       12.750164       1
       15470.734       74.881098       13.685542       1
       15494.216       68.079971       12.730252       1
       15517.698       76.757534       13.874257       1
       15541.180       74.146664       12.782646       1
       15564.662       73.947517       13.805746       1
       15588.143       80.582453       12.851018       1
       15611.625       71.952053       13.829933       1
       15635.107       81.215359       13.787185       1
       15658.589       90.943504       13.952927       1
       15682.071       86.804229       13.811491       1
       15705.553       76.763792       13.788495       1
       15729.035       77.697512       12.692033       1
       15752.516       75.849460       13.747641       1
       15775.998       78.328019       12.666210       1
       15799.480       73.428678       13.701800       1
       15822.962       68.776425       12.560919       1
       15846.444       68.390216       13.537993       1
       15869.926       89.271396       12.751674       1
       15893.408       72.448753       13.689039       1
       15916.889       58.279938       10.977076       1
       15940.371       73.255568       13.654051       1
       15963.853       75.536729       12.675942       1
       15987.335       78.060139       13.800369       1
       16010.817       75.205391       12.679117       1
       16034.299       75.303573       13.764759       1
       16057.781       73.027916       12.651135       1
       16081.262       67.910464       13.738102       1
       16104.744       80.119970       12.733838       1
       16128.226       81.257101       13.873426       1
       16151.708       72.959618       12.719943       1
       16175.190       80.855604       13.999004       1
       16198.672       74.620608       12.877727       1
       16222.153       69.772415       13.911210       1
       16245.635       81.869118       13.066700       1
       16269.117       80.714958       14.234947       1
       16292.599       76.969702       13.048783       1
       16316.081       77.387679       14.188490       1
       16339.563       73.005129       13.105480       1
       16363.045       75.138347       14.208807       1
       16386.526       81.538226       13.172789       1
       16410.008       73.631868       14.281788       1
       16433.490       82.502457       13.278723       1
       16456.972       76.786331       14.347144       1
       16480.454       74.315328       13.340414       1
       16503.936       74.668869       14.589209       1
       16527.418       69.437683       13.668614       1
       16550.899       67.794407       15.174545       1
       16574.381       68.908977       14.503670       1
       16597.863       76.387961       16.587172       1
       16621.345       73.038640       16.113916       1
       16644.827       82.159769       18.834896       1
       16668.309       85.137390       18.833489       1
       16691.791       82.641842       22.287980       1
       16715.272       74.271760       22.752706       1
       16738.754       82.241556       27.713256       1
       16762.236       88.176410       29.089314       0
       16785.718       156.62777       36.510805       0
       16809.200       85.786311       37.555935       0
       16832.682       111.02603       46.863467       0
       16856.164       158.99981       49.218872       0
       16879.645       147.38283       59.855323       0
       16903.127       145.82375       54.327167       0
       16926.609       159.37162       74.505467       0
       16950.091       226.24490       77.646656       0
       16973.573       243.97175       94.244609       0
       16997.055       222.75681       96.788634       0
       17020.537       210.57023       115.94092       0
       17044.018       255.09688       120.26447       0
       17067.500       113.93400       121.78283       0
       17090.982       290.32858       148.49436       0
       17114.464       346.23575       180.78322       0
       17137.946       222.57993       187.11664       0
       17161.428       320.11482       235.40083       0
       17184.910       574.63635       266.89206       0
       17208.391       483.11209       312.72349       0
       17231.873       517.77873       350.98605       0
       17255.355       326.27772       401.73945       0
       17278.837       739.82362       419.48855       0
       17302.319       922.85120       509.46444       0
       17325.801       439.21736       512.28873       0
       17349.282       759.48181       615.60346       0
       17372.764       460.33370       626.25706       0
       17396.246      -121.32170       758.06819       0
       17419.728       1103.0615       774.33044       0
       17443.210       1503.5295       917.70337       0
       17466.692       1002.8419       938.19779       0
       17490.174       2021.6751       1175.8453       0
       17513.655       1449.0555       1298.6536       0
