#WAVELENGTH FLUX ERROR MASK
       7532.5043      -10840.310       13254.400       0
       7544.7112      -1960.2392       7971.1398       0
       7556.9180       3951.3977       10155.916       0
       7569.1249       2564.2644       5549.5171       0
       7581.3317       1972.4378       5460.8173       0
       7593.5386      -1539.4618       4047.9916       0
       7605.7454      -308.43228       3708.3691       0
       7617.9523      -366.72863       2636.0908       0
       7630.1592       1537.7751       2731.5046       0
       7642.3660       1961.4434       1900.0603       0
       7654.5729       723.48017       2022.0766       0
       7666.7797       602.57545       1684.0596       0
       7678.9866       1320.1706       1422.2697       0
       7691.1934       1099.5696       1101.1049       0
       7703.4003       72.105687       1073.5061       0
       7715.6072       206.80512       790.59210       0
       7727.8140       386.55013       626.55379       0
       7740.0209       464.10498       547.53833       0
       7752.2277       361.92158       619.47754       0
       7764.4346      -298.95575       523.57639       0
       7776.6414       116.34919       525.82374       0
       7788.8483       358.01446       389.86609       0
       7801.0552       456.99203       440.60469       0
       7813.2620       76.190234       317.61718       0
       7825.4689       76.636355       354.53606       0
       7837.6757       276.01746       257.36857       0
       7849.8826       58.190694       284.70976       0
       7862.0895       58.278270       208.84025       0
       7874.2963       133.31293       237.71518       0
       7886.5032       30.634695       176.31519       0
       7898.7100       70.228185       204.87050       0
       7910.9169       137.42500       163.90551       0
       7923.1237       191.70305       183.43883       0
       7935.3306       103.45793       147.07190       0
       7947.5375       139.51440       166.04617       0
       7959.7443       16.693391       133.53988       0
       7971.9512       42.039193       151.45365       0
       7984.1580       102.25481       118.66754       0
       7996.3649       154.31678       141.99678       0
       8008.5717       96.453360       110.09819       0
       8020.7786       45.952651       132.19074       0
       8032.9855       150.39737       104.63911       0
       8045.1923       125.28422       126.91478       0
       8057.3992       74.963795       99.791450       0
       8069.6060       101.58016       121.82189       0
       8081.8129       64.678087       96.042608       0
       8094.0197       172.40200       118.58766       0
       8106.2266       12.360135       92.621984       0
       8118.4335       134.39810       114.63774       0
       8130.6403       78.412254       89.798986       0
       8142.8472       104.21860       110.00187       0
       8155.0540       75.417479       86.896672       1
       8167.2609       117.57169       106.50174       1
       8179.4677       51.111071       83.478713       1
       8191.6746       84.770861       102.10355       1
       8203.8815       118.36900       81.040461       1
       8216.0883       26.433319       105.46754       1
       8228.2952       163.56590       77.608923       1
       8240.5020       97.750882       93.220801       1
       8252.7089       88.368036       72.961248       1
       8264.9157       104.47640       88.197457       1
       8277.1226       118.18786       69.706919       1
       8289.3295       105.03016       84.804155       1
       8301.5363       88.425683       66.374745       1
       8313.7432       57.253000       80.487522       1
       8325.9500       101.26997       64.164447       1
       8338.1569       26.816568       77.484354       1
       8350.3637       68.960400       61.940130       1
       8362.5706       153.17544       71.108989       1
       8374.7775       85.297861       60.745876       1
       8386.9843       83.735376       74.416541       1
       8399.1912       102.68861       59.243327       1
       8411.3980       111.15059       72.385145       1
       8423.6049       92.694611       57.373102       1
       8435.8117       133.46473       70.464464       1
       8448.0186       76.466038       55.450751       1
       8460.2255       84.033455       67.622551       1
       8472.4323       59.299194       53.611756       1
       8484.6392       109.93765       66.290473       1
       8496.8460       70.711439       52.178529       1
       8509.0529       23.670563       63.896954       1
       8521.2597       46.258865       51.069055       1
       8533.4666       119.00655       63.315558       1
       8545.6735       107.94476       50.672590       1
       8557.8803       74.307346       62.022451       1
       8570.0872       81.587271       49.869103       1
       8582.2940       65.196065       61.592667       1
       8594.5009       83.555244       51.965742       1
       8606.7077       91.413255       61.602186       1
       8618.9146       50.771385       49.080671       1
       8631.1215       97.254831       56.207567       1
       8643.3283       61.740755       55.376610       1
       8655.5352       78.382504       61.315015       1
       8667.7420       57.496192       47.619254       1
       8679.9489       128.31234       65.475955       1
       8692.1557       88.975619       46.304957       1
       8704.3626       58.247081       56.083343       1
       8716.5695       77.112568       44.510684       1
       8728.7763       87.292305       54.430854       1
       8740.9832       44.664282       44.463051       1
       8753.1900       95.031362       53.038405       1
       8765.3969       48.303275       41.938745       1
       8777.6037       85.320388       51.683140       1
       8789.8106       91.087619       41.335782       1
       8802.0175       73.908778       46.765441       1
       8814.2243       87.851934       40.557972       1
       8826.4312       83.973413       49.860568       1
       8838.6380       57.064595       39.454754       1
       8850.8449       75.428062       48.678115       1
       8863.0517       61.483846       38.777630       1
       8875.2586       67.010101       47.617646       1
       8887.4655       75.108744       38.090936       1
       8899.6723       104.79467       47.311197       1
       8911.8792       83.835224       37.655682       1
       8924.0860       80.754683       46.371917       1
       8936.2929       50.573035       36.783450       1
       8948.4997       38.201821       48.650062       1
       8960.7066       73.485452       36.193363       1
       8972.9135       73.751057       44.469414       1
       8985.1203       68.838885       36.877970       1
       8997.3272       69.660685       43.787458       1
       9009.5340       75.185465       39.941846       1
       9021.7409       61.653805       43.367830       1
       9033.9477       99.999409       35.119411       1
       9046.1546       78.105557       43.229934       1
       9058.3615       82.681992       36.044261       1
       9070.5683       74.278600       42.697525       1
       9082.7752       92.346307       34.209954       1
       9094.9820       64.707974       41.741182       1
       9107.1889       95.646381       33.573543       1
       9119.3957       56.729031       40.693829       1
       9131.6026       60.931595       32.585158       1
       9143.8095       87.624857       43.841087       1
       9156.0163       80.625428       32.162541       1
       9168.2232       98.840699       39.732098       1
       9180.4300       79.715983       36.255248       1
       9192.6369       51.055794       38.445776       1
       9204.8437       82.592868       30.992176       1
       9217.0506       78.266865       38.196959       1
       9229.2575       70.192476       30.504144       1
       9241.4643       71.590018       37.578907       1
       9253.6712       96.333057       31.752544       1
       9265.8780       72.012672       37.200805       1
       9278.0849       84.034578       29.897477       1
       9290.2917       62.648130       36.656088       1
       9302.4986       68.914482       29.502652       1
       9314.7055       67.234511       36.376034       1
       9326.9123       68.968490       29.176104       1
       9339.1192       101.24695       11871582.       1
       9351.3260       84.633640       29.086878       1
       9363.5329       104.12747       37.019008       1
       9375.7397       82.125155       28.786435       1
       9387.9466       85.094634       35.583408       1
       9400.1535       93.646518       28.534191       1
       9412.3603       75.586330       11452432.       1
       9424.5672       85.245220       28.032832       1
       9436.7740       75.122071       34.442000       1
       9448.9809       90.468904       27.690507       1
       9461.1877       76.611898       34.042674       1
       9473.3946       81.127171       28.740068       1
       9485.6015       86.956604       33.644297       1
       9497.8083       78.616316       26.944602       1
       9510.0152       69.721714       33.399390       1
       9522.2220       79.222483       30.999222       1
       9534.4289       73.058253       32.951590       1
       9546.6357       99.813895       26.556510       1
       9558.8426       100.50896       33.003466       1
       9571.0495       88.416026       26.289785       1
       9583.2563       86.843394       32.563545       1
       9595.4632       85.109978       27.062127       1
       9607.6700       95.842950       32.245511       1
       9619.8769       76.999872       26.944735       1
       9632.0838       85.319869       31.995664       1
       9644.2906       75.706894       25.505710       1
       9656.4975       68.737533       31.998401       1
       9668.7043       78.933923       25.346018       1
       9680.9112       78.608336       31.339987       1
       9693.1180       74.824575       25.136594       1
       9705.3249       48.790686       28.209037       1
       9717.5318       74.981159       24.892458       1
       9729.7386       95.812712       33.287342       1
       9741.9455       59.466662       24.521464       1
       9754.1523       80.088195       32.952938       1
       9766.3592       84.193668       24.494764       1
       9778.5660       98.378087       30.407533       1
       9790.7729       88.820413       24.469933       1
       9802.9798       90.917313       29.939886       1
       9815.1866       70.243845       24.198879       1
       9827.3935       80.698834       30.091833       1
       9839.6003       74.648175       24.128596       1
       9851.8072       79.354572       29.873437       1
       9864.0140       76.530587       24.004148       1
       9876.2209       68.368107       29.761142       1
       9888.4278       92.632311       24.880084       1
       9900.6346       64.963481       29.438332       1
       9912.8415       80.791377       23.790705       1
       9925.0483       80.037230       29.387228       1
       9937.2552       69.892287       23.517994       1
       9949.4620       67.424866       26.756500       1
       9961.6689       62.766926       23.096346       1
       9973.8758       62.611651       28.390293       1
       9986.0826       72.151680       22.868251       1
       9998.2895       63.903620       28.102222       1
       10010.496       81.182964       22.778731       1
       10022.703       60.266504       28.044788       1
       10034.910       62.644774       22.566178       1
       10047.117       76.451469       28.099133       1
       10059.324       73.442520       22.682153       1
       10071.531       69.536644       28.052674       1
       10083.737       63.113184       22.374338       1
       10095.944       70.633892       27.883681       1
       10108.151       72.951902       22.447794       1
       10120.358       73.456259       30.096884       1
       10132.565       73.494645       22.153729       1
       10144.772       91.809133       27.724286       1
       10156.979       64.998305       22.043274       1
       10169.185       71.674295       27.408167       1
       10181.392       74.679983       21.988773       1
       10193.599       71.673218       27.089893       1
       10205.806       65.412431       21.737583       1
       10218.013       72.852762       26.957405       1
       10230.220       76.616564       21.562986       1
       10242.427       81.124602       26.708992       1
       10254.633       78.095292       21.379827       1
       10266.840       64.677190       26.175593       1
       10279.047       82.636088       21.263246       1
       10291.254       68.149118       26.056488       1
       10303.461       65.508233       25.101739       1
       10315.668       60.832586       25.840224       1
       10327.875       82.772697       21.036845       1
       10340.081       81.610524       25.941210       1
       10352.288       71.710562       21.892207       1
       10364.495       80.464038       25.956075       1
       10376.702       91.025652       21.991402       1
       10388.909       73.850376       25.824930       1
       10401.116       78.124028       20.749891       1
       10413.323       54.393693       25.492987       1
       10425.529       77.541898       20.687030       1
       10437.736       73.254581       25.571123       1
       10449.943       66.731122       21.554229       1
       10462.150       78.913895       25.676173       1
       10474.357       89.796161       20.740984       1
       10486.564       74.165225       25.582363       1
       10498.771       71.053161       20.624537       1
       10510.977       75.684045       25.754829       1
       10523.184       79.589499       20.618404       1
       10535.391       53.115721       25.519467       1
       10547.598       80.098052       20.647884       1
       10559.805       80.057543       26.507596       1
       10572.012       90.401844       21.611289       1
       10584.219       87.493976       25.755408       1
       10596.425       76.177803       21.248252       1
       10608.632       65.012246       24.706261       1
       10620.839       74.333377       21.015757       1
       10633.046       72.324821       22.545082       1
       10645.253       73.728240       19.838758       1
       10657.460       91.928292       24.748924       1
       10669.667       81.378540       19.824142       1
       10681.873       60.506210       24.375796       1
       10694.080       65.047527       19.654734       1
       10706.287       69.600370       24.422288       1
       10718.494       82.588091       19.756660       1
       10730.701       76.188962       24.409785       1
       10742.908       70.203196       19.619841       1
       10755.115       94.630410       28.574471       1
       10767.321       79.410478       19.621837       1
       10779.528       81.882366       26.529406       1
       10791.735       88.912085       19.615338       1
       10803.942       71.282415       24.190243       1
       10816.149       63.300682       20.079544       1
       10828.356       80.006918       7794001.9       1
       10840.563       75.310924       19.310358       1
       10852.769       71.395177       23.762022       1
       10864.976       65.585323       19.120476       1
       10877.183       80.670280       23.862888       1
       10889.390       91.614053       19.289386       1
       10901.597       70.374509       23.746947       1
       10913.804       78.964314       19.233210       1
       10926.011       86.077830       23.938302       1
       10938.217       70.720341       19.106160       1
       10950.424       68.415617       23.724119       1
       10962.631       69.017115       19.147831       1
       10974.838       65.768694       23.673061       1
       10987.045       68.759709       19.136343       1
       10999.252       77.977354       23.691706       1
       11011.459       67.490063       19.808352       1
       11023.665       103.02285       23.991755       1
       11035.872       77.729669       19.117783       1
       11048.079       86.801393       23.807414       1
       11060.286       79.104385       19.145720       1
       11072.493       100.06843       7685864.8       1
       11084.700       88.661041       19.153929       1
       11096.907       72.129337       23.666994       1
       11109.113       71.350537       19.100276       1
       11121.320       87.503428       23.766283       1
       11133.527       82.316326       19.166492       1
       11145.734       89.503527       23.808777       1
       11157.941       75.287650       19.080053       1
       11170.148       97.563375       23.859026       1
       11182.355       85.079134       19.117429       1
       11194.561       78.279631       23.537562       1
       11206.768       81.161702       19.035570       0
       11218.975       77.525762       23.584570       0
       11231.182       66.128464       19.014057       0
       11243.389       70.156154       23.569526       0
       11255.596       68.778541       18.995469       0
       11267.803       57.194902       23.577889       0
       11280.009       71.015771       19.234399       0
       11292.216       77.419148       7934386.9       0
       11304.423       74.805967       20.896097       0
       11316.630       72.752989       26.353770       0
       11328.837       79.004053       22.592904       0
       11341.044       98.498151       30.534930       0
       11353.251       82.279504       26.827188       0
       11365.457       90.779450       37.013453       0
       11377.664       97.018583       33.716506       0
       11389.871       96.278168       51.692430       0
       11402.078       120.58547       44.246814       0
       11414.285       120.86930       67.028974       0
       11426.492       146.35319       56.395173       0
       11438.699       100.18174       77.492094       0
       11450.905       150.28659       70.624972       0
       11463.112       103.61031       95.497538       0
       11475.319       191.44850       88.481728       0
       11487.526       133.04507       121.96879       0
       11499.733       158.06282       115.89369       0
       11511.940       262.15215       173.36905       0
       11524.147       342.78045       171.50771       0
       11536.353       175.38594       263.30444       0
       11548.560       171.21213       263.76061       0
       11560.767       310.33445       410.16510       0
       11572.974      -56.909637       464.32234       0
       11585.181       510.32768       617.31406       0
       11597.388       119.81954       689.79995       0
       11609.595       108.77754       918.36440       0
       11621.801      -279.28210       958.77947       0
       11634.008       757.09076       1568.2147       0
       11646.215       306.35069       1651.4452       0
       11658.422      -1494.1784       2463.7233       0
       11670.629      -1414.4326       2855.2916       0
       11682.836       915.98407       4311.6863       0
       11695.043      -1348.4883       3709.5786       0
       11707.249       1320.3729       4723.7524       0
       11719.456       955.91674       3710.7939       0
       11731.663       2900.2169       4504.3622       0
       11743.870      -464.00631       3556.8216       0
       11756.077      -3431.4173       4584.3756       0
       11768.284       1755.5879       4058.5008       0
       11780.491       486.86987       5792.5669       0
       11792.697      -713.07210       5502.8480       0
       11804.904      -771.15184       8194.7474       0
       11817.111      -1165.8861       7801.8218       0
       11829.318      -2859.2950       11140.378       0
       11841.525      -1791.3779       11765.059       0
       11853.732      -1683.1129       14666.734       0
       11865.939      -14877.955       14033.469       0
       11878.145      -5149.1263       21927.754       0
       11890.352      -8338.8298       22002.965       0
       11902.559      -7269.7756       31465.547       0
       11914.766       21565.452       28753.444       0
