#WAVELENGTH FLUX ERROR MASK
       7483.3273       9502.4370       21168.113       0
       7495.2973       16826.676       23394.571       0
       7507.2672       310.82553       15722.277       0
       7519.2372       22999.474       16744.313       0
       7531.2072       5231.0047       17463.891       0
       7543.1772      -4969.4886       11581.891       0
       7555.1472       3811.3989       7956.3441       0
       7567.1171      -3608.4868       7332.7429       0
       7579.0871      -2561.1341       4749.7517       0
       7591.0571       4637.9177       4822.4566       0
       7603.0271       1415.4042       3245.3669       0
       7614.9970       981.31236       3395.1127       0
       7626.9670       3130.7408       2388.4224       0
       7638.9370      -591.84678       2508.5465       0
       7650.9070       569.16899       1778.1855       0
       7662.8770       1222.2080       1862.4109       0
       7674.8469       1268.5728       1264.4381       0
       7686.8169       753.06401       1306.7767       0
       7698.7869      -524.46392       877.53995       0
       7710.7569       688.17965       937.71821       0
       7722.7268       345.66784       662.52797       0
       7734.6968       481.40246       734.11096       0
       7746.6668       112.39777       538.13586       0
       7758.6368       217.97676       610.88192       0
       7770.6068       157.02415       457.37271       0
       7782.5767       45.431787       520.67646       0
       7794.5467       189.39267       386.03707       0
       7806.5167      -172.64916       430.32744       0
       7818.4867       306.20123       316.15737       0
       7830.4566      -64.507825       347.51671       0
       7842.4266      -5.2825061       251.69161       0
       7854.3966      -72.687934       281.43013       0
       7866.3666       207.12398       210.50828       0
       7878.3366      -39.681160       236.31101       0
       7890.3065      -27.307023       178.83696       0
       7902.2765       39.255029       206.99946       0
       7914.2465       132.84501       159.24448       0
       7926.2165       123.78800       185.49508       0
       7938.1865       162.45976       144.62574       0
       7950.1564       319.64944       173.47160       0
       7962.1264       171.24571       132.51271       0
       7974.0964      -45.230445       156.16191       0
       7986.0664      -32.995748       121.01093       0
       7998.0363      -39.120446       144.45341       0
       8010.0063       97.849499       129.92192       0
       8021.9763       66.684443       137.32402       0
       8033.9463       95.356527       107.74599       0
       8045.9163       92.391016       131.27205       0
       8057.8862       92.630356       103.36919       0
       8069.8562      -35.229856       125.23287       0
       8081.8262       147.74670       99.668072       0
       8093.7962       76.975280       122.12851       0
       8105.7661       22.758218       95.939178       0
       8117.7361       130.58892       119.09420       0
       8129.7061      -17.997814       91.934386       0
       8141.6761      -24.627324       112.33683       0
       8153.6461       4.6649113       90.296210       1
       8165.6160       119.84233       108.93086       1
       8177.5860      -29.970202       120.81159       1
       8189.5560       51.971701       105.28206       1
       8201.5260       57.436861       83.987844       1
       8213.4960      -109.55324       99.691136       1
       8225.4659       45.083952       79.810497       1
       8237.4359       16.852079       96.191298       1
       8249.4059       90.146972       76.405522       1
       8261.3759       34.343993       91.492320       1
       8273.3458       95.912630       72.440476       1
       8285.3158       129.86888       87.901259       1
       8297.2858       37.445243       68.836193       1
       8309.2558       12.206711       82.885598       1
       8321.2258       18.999873       66.068128       1
       8333.1957       9.8359221       80.407168       1
       8345.1657       1.2579240       63.677942       1
       8357.1357       58.161393       78.692542       1
       8369.1057       45.066358       62.348462       1
       8381.0756       11.346951       76.269292       1
       8393.0456      -14.529266       60.670740       1
       8405.0156       63.911585       75.120016       1
       8416.9856       87.685349       59.634246       1
       8428.9556       45.138259       73.102752       1
       8440.9255       38.483456       57.550625       1
       8452.8955       70.912940       71.073153       1
       8464.8655      -49.310855       55.153762       1
       8476.8355       48.552076       69.015600       1
       8488.8055      -7.4953532       53.433412       1
       8500.7754       22.050443       66.895524       1
       8512.7454      -18.862987       52.675096       1
       8524.7154       67.880507       65.944463       1
       8536.6854       18.161818       53.222458       1
       8548.6553       32.653068       64.504483       1
       8560.6253      -31.476574       52.007912       1
       8572.5953      -16.216575       62.778304       1
       8584.5653      -2.8732547       50.767830       1
       8596.5353     -0.54505843       61.718358       1
       8608.5052       28.145156       50.759091       1
       8620.4752       40.608330       63.019937       1
       8632.4452       66.990893       50.659812       1
       8644.4152       65.988213       61.512083       1
       8656.3851       37.792830       49.755815       1
       8668.3551      -12.321018       60.667734       1
       8680.3251       124.69775       49.062422       1
       8692.2951       19.212478       59.513421       1
       8704.2651     -0.11021551       46.571155       1
       8716.2350       60.596182       57.572551       1
       8728.2050       8.9423419       44.049780       1
       8740.1750       68.555108       55.802217       1
       8752.1450       8.2125591       43.573874       1
       8764.1149       54.015861       54.131848       1
       8776.0849       7.3165819       42.660221       1
       8788.0549      -8.8519879       52.562850       1
       8800.0249      -4.5999072       41.809340       1
       8811.9949       20.823807       51.986238       1
       8823.9648       35.575548       41.161313       1
       8835.9348      -43.601681       49.426348       1
       8847.9048       59.053931       40.345589       1
       8859.8748      -9.1262011       40.936270       1
       8871.8448       67.974372       39.387646       1
       8883.8147       26.284593       47.834595       1
       8895.7847       45.249414       38.936902       1
       8907.7547       88.715814       48.042685       1
       8919.7247       78.342561       38.239958       1
       8931.6946      -6.1148954       46.738194       1
       8943.6646       29.655255       37.538575       1
       8955.6346       42.227702       46.316390       1
       8967.6046       7.5431876       36.160306       1
       8979.5746       63.061776       45.549777       1
       8991.5445       15.391831       36.015378       1
       9003.5145      -1.6216637       32.129721       1
       9015.4845       39.291283       35.837402       1
       9027.4545       51.903531       44.434759       1
       9039.4244       13.635925       35.532189       1
       9051.3944       3.7791713       43.839116       1
       9063.3644       29.670712       35.260640       1
       9075.3344       27.086381       43.424373       1
       9087.3044       54.382262       34.963125       1
       9099.2743      0.42562538       42.290100       1
       9111.2443       52.121020       34.348136       1
       9123.2143       13.718127       41.552909       1
       9135.1843       28.647552       33.235047       1
       9147.1543      0.38688610       40.680266       1
       9159.1242       41.290852       32.708213       1
       9171.0942      -17.805889       39.200230       1
       9183.0642      -5.6798022       36.355324       1
       9195.0342       44.499073       39.146186       1
       9207.0041       21.963476       35.947167       1
       9218.9741       33.374848       38.470361       1
       9230.9441      -3.4322238       30.859228       1
       9242.9141       35.148348       37.810821       1
       9254.8841       31.021376       30.675272       1
       9266.8540       34.516460       37.573009       1
       9278.8240       23.637249       34.578307       1
       9290.7940       37.949206       37.316825       1
       9302.7640       58.882755       30.277503       1
       9314.7339       51.548743       37.068536       1
       9326.7039       38.907277       29.804525       1
       9338.6739       36.551175       36.814493       1
       9350.6439      -7.8527773       29.014126       1
       9362.6139       54.156774       36.765152       1
       9374.5838       36.014098       29.237404       1
       9386.5538       47.569830       36.248214       1
       9398.5238       28.587379       28.548495       1
       9410.4938       60.178869       35.654205       1
       9422.4637       51.530510       31.206840       1
       9434.4337       31.509220       34.747785       1
       9446.4037       19.679248       30.449210       1
       9458.3737       39.973373       34.439250       1
       9470.3437       44.132317       27.812495       1
       9482.3136       15.099790       33.825570       1
       9494.2836       21.717864       27.224872       1
       9506.2536       10.917063       33.421983       1
       9518.2236       10.913816       26.853868       1
       9530.1936       18.825627       33.203376       1
       9542.1635       39.167952       26.824594       1
       9554.1335       30.400606       15741729.       1
       9566.1035       60.411159       26.664762       1
       9578.0735       14.992953       32.517735       1
       9590.0434       7.6297973       25.968582       1
       9602.0134       49.160344       32.476466       1
       9613.9834       24.596611       25.974072       1
       9625.9534       49.150090       32.014101       1
       9637.9234       33.355443       25.849581       1
       9649.8933       40.328134       31.811383       1
       9661.8633       40.529897       25.736247       1
       9673.8333       49.219588       31.668521       1
       9685.8033       26.358188       25.433733       1
       9697.7732       24.998343       31.139243       1
       9709.7432       26.619572       25.130600       1
       9721.7132       21.161924       30.794620       1
       9733.6832       21.551923       26.803855       1
       9745.6532       61.800263       30.904083       1
       9757.6231       34.513394       24.722060       1
       9769.5931       23.660007       30.234991       1
       9781.5631       13.774568       24.392941       1
       9793.5331       23.335816       30.191312       1
       9805.5031       21.065028       24.256891       1
       9817.4730       41.518799       30.195171       1
       9829.4430       48.845644       24.313842       1
       9841.4130       50.880458       30.003487       1
       9853.3830       28.933873       23.919004       1
       9865.3529       43.215212       29.861038       1
       9877.3229       35.800550       24.265319       1
       9889.2929       41.331349       29.969844       1
       9901.2629       24.869727       24.073468       1
       9913.2329       34.160790       29.879294       1
       9925.2028       12.542482       23.857744       1
       9937.1728       28.052344       29.606800       1
       9949.1428       21.668011       23.721906       1
       9961.1128       64.221288       29.288846       1
       9973.0827       21.237255       32.291076       1
       9985.0527       46.262013       28.980925       1
       9997.0227       5.8506688       22.992591       1
       10008.993       40.805582       28.675582       1
       10020.963      -3.5583325       22.578053       1
       10032.933      -10.771138       19.417107       1
       10044.903       23.283703       22.609000       1
       10056.873       57.979315       28.407512       1
       10068.843       34.807411       22.852413       1
       10080.813       35.786102       27.855611       1
       10092.783       23.882785       22.678491       1
       10104.753       40.656117       28.339777       1
       10116.722       18.969382       22.479756       1
       10128.692       20.790686       28.092809       1
       10140.662       35.788590       22.583975       1
       10152.632       51.324196       28.043890       1
       10164.602       26.512652       22.328106       1
       10176.572       46.856139       27.828361       1
       10188.542       39.845535       22.313585       1
       10200.512       32.665521       27.611526       1
       10212.482       34.898263       22.041667       1
       10224.452       28.989661       27.243064       1
       10236.422       15.010094       21.727641       1
       10248.392       11.384285       26.822556       1
       10260.362       41.290094       24.176440       1
       10272.332       11.197385       26.470442       1
       10284.302       43.883950       21.382150       1
       10296.272      -9.2981182       19.015498       1
       10308.242      0.10660292       20.875233       1
       10320.212       37.406153       26.495417       1
       10332.182       19.492266       21.047268       1
       10344.152       40.703098       26.693012       1
       10356.122       42.005085       21.134480       1
       10368.092       28.904972       26.336349       1
       10380.062       17.000257       21.013965       1
       10392.032       1.2908488       26.014434       1
       10404.002       19.548179       20.941290       1
       10415.972       24.770208       26.002748       1
       10427.942       23.772922       20.880191       1
       10439.912       38.430164       25.960091       1
       10451.882       26.784414       20.840717       1
       10463.852       5.9637651       25.763935       1
       10475.822       40.166696       20.899550       1
       10487.792       10.988963       25.859310       1
       10499.762       54.486033       21.046483       1
       10511.732     0.048772459       25.732101       1
       10523.702       19.047099       20.734027       1
       10535.672       28.097585       25.991537       1
       10547.642       30.757578       20.916934       1
       10559.612     -0.56784753       25.713457       1
       10571.582       35.554420       20.948786       1
       10583.552       14.127131       25.867238       1
       10595.522       33.669581       20.801646       1
       10607.492       16.912778       21.008751       1
       10619.462       10.599973       20.317530       1
       10631.432       19.065015       25.394703       1
       10643.402       16.250047       20.239469       1
       10655.372       11.248944       25.011347       1
       10667.341       12.213450       20.110259       1
       10679.311       28.433633       25.083693       1
       10691.281       12.344021       19.995210       1
       10703.251       44.519916       25.272269       1
       10715.221       35.306141       20.139565       1
       10727.191       8.3309304       28.817584       1
       10739.161       30.242316       20.048475       1
       10751.131       28.506472       24.880878       1
       10763.101       34.198705       19.983312       1
       10775.071       32.229224       24.823626       1
       10787.041       22.354626       21.484521       1
       10799.011     -0.70232868       24.581958       1
       10810.981       30.504247       19.917710       1
       10822.951       13.552962       24.611543       1
       10834.921       32.833231       19.803548       1
       10846.891       30.273546       24.598580       1
       10858.861       25.763837       19.574960       1
       10870.831      -1.8783736       23.916521       1
       10882.801       34.113985       19.521859       1
       10894.771      -7.6552162       23.773257       1
       10906.741       28.530623       19.373842       1
       10918.711       21.359734       24.039466       1
       10930.681       18.576045       19.392114       1
       10942.651       17.025613       24.094444       1
       10954.621       30.362478       19.451089       1
       10966.591       25.985744       24.124055       1
       10978.561       27.863970       19.511942       1
       10990.531       32.549535       24.043560       1
       11002.501       39.154337       19.543223       1
       11014.471       2.0742123       23.861229       1
       11026.441      -4.8971623       19.083808       1
       11038.411       7.7962795       23.794729       1
       11050.381       6.0703607       19.103008       1
       11062.351       15.160233       23.769166       1
       11074.321      -1.2565514       18.990246       1
       11086.291       54.624351       24.043682       1
       11098.261       24.709451       19.272906       1
       11110.231       10.133339       23.820478       1
       11122.201       29.881042       19.371379       1
       11134.171       1.5021262       23.825293       1
       11146.141       14.289170       19.271789       1
       11158.111       57.513087       24.185450       1
       11170.081       25.357937       19.296213       1
       11182.051       22.754008       23.932167       1
       11194.021       7.9994615       19.220615       1
       11205.990       22.772677       23.916839       0
       11217.960       12.859993       19.236022       0
       11229.930       34.246988       23.836332       0
       11241.900       17.517782       19.268810       0
       11253.870       20.875831       23.872419       0
       11265.840       43.504834       19.348215       0
       11277.810       16.019381       23.831004       0
       11289.780       18.743176       19.201933       0
       11301.750      -4.3835752       23.656051       0
       11313.720       16.164013       19.399028       0
       11325.690       12.827094       24.395243       0
       11337.660       15.681048       20.193168       0
       11349.630       21.259775       26.078634       0
       11361.600       26.323253       22.141330       0
       11373.570      -9.6068598       29.153615       0
       11385.540       21.471935       25.733965       0
       11397.510       2.7614171       35.096762       0
       11409.480       38.322407       31.482163       0
       11421.450       32.666776       44.196887       0
       11433.420       59.082797       40.780382       0
       11445.390      -5.2308621       56.354649       0
       11457.360      -1.4656919       51.593284       0
       11469.330       60.449386       72.459358       0
       11481.300       14.716577       64.324957       0
       11493.270      -20.191008       87.892095       0
       11505.240      -8.7924984       78.619999       0
       11517.210       1.1861934       109.26398       0
       11529.180      -23.981857       99.708079       0
       11541.150      -13.189799       143.38364       0
       11553.120       98.938491       138.50430       0
       11565.090      -63.269606       205.82200       0
       11577.060      -81.640427       206.24840       0
       11589.030      -64.674442       315.63186       0
       11601.000       26.096435       317.35634       0
       11612.970       298.90252       479.89322       0
       11624.940      -524.42795       466.26845       0
       11636.910       343.52617       706.20317       0
       11648.880       293.69903       686.58137       0
       11660.850       130.33262       1065.6186       0
       11672.820      -1001.2457       1110.6144       0
       11684.790      -423.85221       1788.2720       0
       11696.760      -1625.3253       1866.9121       0
       11708.730      -1056.7628       3040.5928       0
       11720.700       1399.9804       3168.1442       0
       11732.670      -3838.6130       4452.1667       0
       11744.640      -946.08205       3804.1555       0
       11756.609       36.222369       4752.9458       0
       11768.579      -1096.0519       3743.9803       0
       11780.549       525.74949       4510.5148       0
