#WAVELENGTH FLUX ERROR MASK
       7483.3273      -4993.5984       21276.985       0
       7495.2973      -4101.2513       23458.054       0
       7507.2672       5792.8966       15890.353       0
       7519.2372      -4899.6087       16587.960       0
       7531.2072       7879.5576       11544.226       0
       7543.1772       4114.3131       11748.303       0
       7555.1472       1433.9537       7534.2970       0
       7567.1171      -20.798607       7446.1962       0
       7579.0871      -746.91989       4768.2584       0
       7591.0571      -464.90616       4825.8192       0
       7603.0271       3659.6467       3276.3462       0
       7614.9970       533.92499       3404.8454       0
       7626.9670      -423.79492       2363.6337       0
       7638.9370       3052.3770       2580.5789       0
       7650.9070       594.36430       1784.7638       0
       7662.8770       156.53678       1874.0022       0
       7674.8469       663.78076       1268.9675       0
       7686.8169      -419.21947       1299.8770       0
       7698.7869      -210.16896       882.33199       0
       7710.7569       319.54007       943.49485       0
       7722.7268       322.05097       666.51478       0
       7734.6968      -266.50965       630.28798       0
       7746.6668       566.21199       544.15412       0
       7758.6368       400.33443       618.80791       0
       7770.6068       363.43135       461.40402       0
       7782.5767       888.65407       533.26833       0
       7794.5467       348.61531       388.99734       0
       7806.5167       329.55640       437.05802       0
       7818.4867       116.32475       315.69015       0
       7830.4566      -5.2154972       352.15908       0
       7842.4266       173.73835       254.89526       0
       7854.3966       230.41675       288.63028       0
       7866.3666       181.57038       211.16704       0
       7878.3366       64.476129       239.86929       0
       7890.3065       21.739731       179.96149       0
       7902.2765      -53.515907       208.24670       0
       7914.2465       147.84372       169.70684       0
       7926.2165      -77.357377       184.31142       0
       7938.1865      -7.7892091       143.36934       0
       7950.1564       66.739962       170.52037       0
       7962.1264       128.52598       131.83152       0
       7974.0964      -28.211015       156.00723       0
       7986.0664       159.87669       121.81598       0
       7998.0363       60.440914       145.45796       0
       8010.0063       92.164409       113.78303       0
       8021.9763       12.727979       137.15061       0
       8033.9463       17.641982       107.25062       0
       8045.9163       78.105878       131.12639       0
       8057.8862       31.908806       103.28382       0
       8069.8562       56.450583       126.46767       0
       8081.8262       87.142388       100.14990       0
       8093.7962       114.70634       122.71193       0
       8105.7661       75.998292       96.964240       0
       8117.7361       33.100515       117.85561       0
       8129.7061       59.002930       92.936006       0
       8141.6761       82.079401       113.95901       0
       8153.6461       50.820669       89.897473       1
       8165.6160      -58.166672       106.61521       1
       8177.5860       16.966536       86.963274       1
       8189.5560       26.021195       105.71987       1
       8201.5260       12.011270       83.128051       1
       8213.4960      -2.8900628       101.24748       1
       8225.4659       60.480780       79.904740       1
       8237.4359       76.716312       97.175245       1
       8249.4059       50.868075       86.950877       1
       8261.3759       88.521083       92.496826       1
       8273.3458       33.692383       72.084809       1
       8285.3158       82.088039       88.048365       1
       8297.2858       55.239216       69.326265       1
       8309.2558       99.387814       84.622032       1
       8321.2258       61.507910       66.539527       1
       8333.1957      -5.6668458       80.595443       1
       8345.1657      -5.4879015       63.961131       1
       8357.1357       29.604764       78.701296       1
       8369.1057       32.287391       62.444760       1
       8381.0756       4.3859816       76.703324       1
       8393.0456       22.203984       61.129641       1
       8405.0156       35.434852       74.884332       1
       8416.9856       3.9486642       59.136625       1
       8428.9556       77.137248       73.503110       1
       8440.9255       32.873869       57.455106       1
       8452.8955       27.919232       70.290836       1
       8464.8655       31.129544       55.791633       1
       8476.8355       58.590753       68.663676       1
       8488.8055      -23.105647       53.361495       1
       8500.7754       36.596899       66.760086       1
       8512.7454      -1.6576121       52.726584       1
       8524.7154       45.059665       65.284490       1
       8536.6854       29.554390       52.241744       1
       8548.6553      -10.442052       63.766029       1
       8560.6253       48.232529       51.667790       1
       8572.5953      -7.9964005       62.602738       1
       8584.5653       13.013271       50.873977       1
       8596.5353       58.387141       62.331272       1
       8608.5052       25.183722       50.658373       1
       8620.4752       6.9697404       62.215218       1
       8632.4452       53.750783       50.457958       1
       8644.4152       26.694485       60.144349       1
       8656.3851       14.695791       49.444186       1
       8668.3551       54.470132       60.767107       1
       8680.3251       29.898993       48.088828       1
       8692.2951      -16.010801       58.595107       1
       8704.2651       28.769004       46.711756       1
       8716.2350       49.399939       57.142346       1
       8728.2050       22.214277       44.439204       1
       8740.1750       33.784254       55.039085       1
       8752.1450       2.9758657       43.425045       1
       8764.1149       25.757098       53.673724       1
       8776.0849       25.375542       42.366992       1
       8788.0549       38.497810       52.739625       1
       8800.0249       47.442614       42.159050       1
       8811.9949       34.290947       51.932945       1
       8823.9648       2.4631246       40.783729       1
       8835.9348       11.218350       49.847976       1
       8847.9048       37.506678       40.162080       1
       8859.8748      -3.7004298       48.617801       1
       8871.8448       39.025511       39.356414       1
       8883.8147       29.425950       47.622865       1
       8895.7847      -2.7375566       38.373162       1
       8907.7547       3.3045766       47.405750       1
       8919.7247       18.058645       39.141525       1
       8931.6946       6.0071133       46.917638       1
       8943.6646       40.632658       37.618988       1
       8955.6346       28.461888       46.227966       1
       8967.6046       31.669627       36.487762       1
       8979.5746       5.8339394       44.991082       1
       8991.5445       18.061684       36.001084       1
       9003.5145       8.4976549       44.458096       1
       9015.4845       15.263269       35.688695       1
       9027.4545       23.561603       44.321037       1
       9039.4244       31.523258       35.680963       1
       9051.3944       47.727099       44.358598       1
       9063.3644       28.222363       40.248830       1
       9075.3344       36.863284       43.646535       1
       9087.3044       44.103937       34.953767       1
       9099.2743       28.881432       42.771583       1
       9111.2443       40.701158       34.175181       1
       9123.2143       37.895814       41.942550       1
       9135.1843       23.047942       33.431388       1
       9147.1543       44.966738       41.044097       1
       9159.1242       38.452581       32.871929       1
       9171.0942       17.180285       39.847463       1
       9183.0642       31.002945       33.795252       1
       9195.0342       9.2042178       38.901227       1
       9207.0041       40.164699       33.260815       1
       9218.9741       35.051598       38.638134       1
       9230.9441       25.944529       31.067811       1
       9242.9141       42.072577       38.272256       1
       9254.8841       50.745397       30.964654       1
       9266.8540       24.207298       37.880834       1
       9278.8240       25.812971       31.969624       1
       9290.7940       34.499468       37.518402       1
       9302.7640       54.326700       31.830881       1
       9314.7339       50.275983       38.110449       1
       9326.7039       20.941780       30.599270       1
       9338.6739       42.159841       37.610046       1
       9350.6439       25.873680       29.494129       1
       9362.6139       16.090416       36.326602       1
       9374.5838       23.692235       29.210684       1
       9386.5538       28.734553       36.082138       1
       9398.5238       41.627818       28.909607       1
       9410.4938       27.960457       35.541279       1
       9422.4637      -4.8730846       30.103190       1
       9434.4337       10.494509       34.736791       1
       9446.4037       32.941055       30.172581       1
       9458.3737       21.505745       34.516158       1
       9470.3437       17.552235       27.552266       1
       9482.3136       27.318668       34.355676       1
       9494.2836       43.351500       27.604798       1
       9506.2536       14.970051       33.641171       1
       9518.2236       14.635726       27.049901       1
       9530.1936       11.822367       33.507800       1
       9542.1635       33.735765       26.886656       1
       9554.1335       30.149811       33.352431       1
       9566.1035       19.191184       26.460762       1
       9578.0735       7.3358677       32.733119       1
       9590.0434       41.145288       26.491377       1
       9602.0134       18.486191       32.569699       1
       9613.9834       25.174264       26.056532       1
       9625.9534       40.092600       32.361846       1
       9637.9234       10.400267       25.772703       1
       9649.8933       41.850027       32.107392       1
       9661.8633       27.563994       25.713051       1
       9673.8333       29.517052       31.874658       1
       9685.8033       18.170992       25.485377       1
       9697.7732       19.232319       31.512036       1
       9709.7432       38.805457       25.399057       1
       9721.7132       26.514478       31.236389       1
       9733.6832       29.497628       25.095910       1
       9745.6532       32.889696       31.043693       1
       9757.6231       29.516793       24.890435       1
       9769.5931       27.252517       30.697597       1
       9781.5631       29.637758       24.571395       1
       9793.5331       2.8700365       29.788612       1
       9805.5031       28.642577       24.502013       1
       9817.4730       3.4398269       26.411147       1
       9829.4430       31.167533       27.433456       1
       9841.4130       36.393848       29.935202       1
       9853.3830       32.085826       24.251653       1
       9865.3529       24.807820       29.950998       1
       9877.3229       34.693257       24.319085       1
       9889.2929       22.771436       29.855497       1
       9901.2629       33.486419       24.199675       1
       9913.2329       41.180157       30.012925       1
       9925.2028       25.777726       23.980229       1
       9937.1728       15.884719       29.441765       1
       9949.1428       33.892673       23.862246       1
       9961.1128       24.275946       29.244373       1
       9973.0827       11.502250       26.607820       1
       9985.0527       26.786565       28.869072       1
       9997.0227       3.0777382       22.989384       1
       10008.993       23.711005       28.410978       1
       10020.963       31.047095       22.888274       1
       10032.933       30.079657       28.171450       1
       10044.903       27.322866       22.700518       1
       10056.873       19.020569       28.287591       1
       10068.843       50.881021       23.047701       1
       10080.813       35.863627       25.804921       1
       10092.783       34.669089       22.928604       1
       10104.753       16.461424       28.133405       1
       10116.722       23.397959       22.517639       1
       10128.692       28.966004       9342448.3       1
       10140.662       27.461161       22.508533       1
       10152.632       30.183701       27.891630       1
       10164.602       15.598769       23.289123       1
       10176.572       29.199052       27.622401       1
       10188.542       23.041179       22.211472       1
       10200.512       20.180509       27.354736       1
       10212.482       28.049368       22.916516       1
       10224.452       12.106993       27.073278       1
       10236.422       28.817126       21.850064       1
       10248.392       2.2577838       26.693053       1
       10260.362       27.014841       21.442231       1
       10272.332       16.356088       26.463830       1
       10284.302       25.045907       21.241514       1
       10296.272       6.6376301       26.229664       1
       10308.242       20.456229       22.089587       1
       10320.212       36.010843       26.361677       1
       10332.182       29.784341       21.074024       1
       10344.152       30.569181       26.391534       1
       10356.122       37.422436       22.011685       1
       10368.092       8.9298458       25.876798       1
       10380.062       20.251906       20.921496       1
       10392.032       11.554256       25.905137       1
       10404.002       27.099224       20.965646       1
       10415.972       17.019952       25.698050       1
       10427.942      -3.9230430       20.605117       1
       10439.912       3.4115767       25.518941       1
       10451.882       13.685577       20.701842       1
       10463.852       25.590048       25.846601       1
       10475.822       22.973401       20.783739       1
       10487.792      0.87127690       25.486284       1
       10499.762       27.510999       20.688777       1
       10511.732      -4.4879824       25.555129       1
       10523.702       32.700630       20.876466       1
       10535.672       14.246389       25.778930       1
       10547.642       4.8248105       20.665134       1
       10559.612       23.747697       25.821217       1
       10571.582       18.193836       20.633800       1
       10583.552       35.726138       25.896422       1
       10595.522       34.562797       20.709850       1
       10607.492       25.281401       25.622396       1
       10619.462       12.438954       20.340932       1
       10631.432       29.137951       25.358907       1
       10643.402       19.649908       20.234980       1
       10655.372       31.117565       25.004412       1
       10667.341       16.620330       20.088336       1
       10679.311       8.1072683       24.759207       1
       10691.281       11.992588       19.907261       1
       10703.251       21.063167       24.911619       1
       10715.221       30.890862       20.190145       1
       10727.191       29.457573       28.033492       1
       10739.161       30.612561       19.962312       1
       10751.131       3.6415522       24.495052       1
       10763.101       24.223068       21.296210       1
       10775.071       46.292912       24.866564       1
       10787.041       23.968983       19.879395       1
       10799.011       17.102292       24.546837       1
       10810.981       31.081790       19.797180       1
       10822.951      -18.346662       16.700576       1
       10834.921       19.238036       19.659354       1
       10846.891       6.8099906       24.127754       1
       10858.861       21.106767       19.551934       1
       10870.831       14.798601       21.949403       1
       10882.801       11.285476       20.309970       1
       10894.771       3.7979452       23.970415       1
       10906.741       19.298082       19.353815       1
       10918.711       29.926347       24.163342       1
       10930.681       4.6253441       21.813911       1
       10942.651      -1.4805175       23.934877       1
       10954.621       11.268521       19.301594       1
       10966.591       6.0871365       23.934938       1
       10978.561       8.6960437       22.212900       1
       10990.531       11.671454       21.787491       1
       11002.501       17.115836       20.051076       1
       11014.471       9.9503032       23.880685       1
       11026.441       21.895360       19.375096       1
       11038.411       8.0810412       23.852771       1
       11050.381       24.310869       20.058492       1
       11062.351       9.6092778       21.908955       1
       11074.321       8.1628233       22.113869       1
       11086.291       6.8747520       23.702204       1
       11098.261       11.479485       20.148738       1
       11110.231       15.363822       23.865920       1
       11122.201       27.099675       19.362009       1
       11134.171       6.8221001       23.837590       1
       11146.141       16.708422       24.342902       1
       11158.111       8.3048734       23.835703       1
       11170.081       17.368212       20.053259       1
       11182.051      -4.3600306       25.133420       1
       11194.021       5.4295581       21.824965       1
       11205.990       17.356026       23.944740       0
       11217.960       11.663291       19.222084       0
       11229.930       20.837352       23.856571       0
       11241.900       25.170420       19.307751       0
       11253.870       11.056886       23.784975       0
       11265.840       19.033720       22.231571       0
       11277.810       19.517598       23.904303       0
       11289.780       30.925223       19.389453       0
       11301.750       6.4635692       23.740628       0
       11313.720       23.768882       24.637939       0
       11325.690       11.436463       24.394420       0
       11337.660       15.180534       20.204268       0
       11349.630       18.857735       26.198796       0
       11361.600       17.773839       22.163724       0
       11373.570       4.8640380       29.475179       0
       11385.540       21.659904       25.831691       0
       11397.510      -6.9262317       34.986129       0
       11409.480       4.2852977       31.477407       0
       11421.450      -21.154963       43.897298       0
       11433.420       33.411338       40.662535       0
       11445.390       3.6106294       56.879311       0
       11457.360      -3.4126491       51.891292       0
       11469.330       35.990210       72.498541       0
       11481.300       42.773728       69.717040       0
       11493.270      -135.32889       86.649310       0
       11505.240       35.334154       79.351661       0
       11517.210      -38.441479       109.15709       0
       11529.180       36.418060       100.90700       0
       11541.150      -21.809123       145.02718       0
       11553.120       4.3799636       139.33556       0
       11565.090      -16.910347       207.59444       0
       11577.060       135.12739       208.58142       0
       11589.030      -64.558668       318.39536       0
       11601.000      -69.249396       316.54406       0
       11612.970      -23.601110       479.58983       0
       11624.940       137.17296       472.25587       0
       11636.910      -632.74785       699.97378       0
       11648.880       100.47090       688.04238       0
       11660.850      -271.38089       1073.0576       0
       11672.820       51.961300       1126.9025       0
       11684.790       1446.9601       1827.5669       0
       11696.760      -1619.8012       1874.3626       0
       11708.730       898.52695       3078.4110       0
       11720.700       563.06292       3169.9951       0
       11732.670       2815.5867       4539.5839       0
       11744.640      -1128.1557       3829.5070       0
       11756.609       3925.7998       4824.2764       0
       11768.579      -164.93826       3738.0991       0
       11780.549       2991.2943       5015.1439       0
