#WAVELENGTH FLUX ERROR MASK
       10225.865      -1098.7260       2879.5565       0
       10248.854       3085.5500       2566.2555       0
       10271.844       3725.8668       2170.0872       0
       10294.833       2.6577821       1889.0849       0
       10317.822       1611.0995       1648.0012       0
       10340.812       351.05276       1496.5270       0
       10363.801       1465.5202       1349.1461       0
       10386.790       1176.7747       1254.8668       0
       10409.780      -80.433290       1100.9126       0
       10432.769       996.56416       1023.4053       0
       10455.759       1355.4248       866.22492       0
       10478.748       21.715313       742.58072       0
       10501.737       1231.9938       622.46492       0
       10524.727       12.986336       533.87992       0
       10547.716       304.81638       448.88143       0
       10570.705       270.23585       402.86403       0
       10593.695       32.702154       357.18643       0
       10616.684       207.94517       321.99254       0
       10639.673       173.28802       280.76613       0
       10662.663       72.776284       258.35571       0
       10685.652       25.594424       219.68297       0
       10708.641       87.464695       193.79174       0
       10731.631       47.805776       59250440.       0
       10754.620       106.07124       136.13479       0
       10777.610       72.286521       110.40727       0
       10800.599       74.938859       95.698344       0
       10823.588       75.686272       80.333995       0
       10846.578       2.2033646       71.523875       0
       10869.567       21.814393       63.133508       0
       10892.556      -3.9358892       58.469887       0
       10915.546       15.544710       53.513978       0
       10938.535      -194.95591       41.462464       0
       10961.524       69.572784       47.379340       0
       10984.514       31.845853       44.756963       0
       11007.503       34.761736       40.939406       1
       11030.492      -3.9617305       38.845050       1
       11053.482       75.233693       36.000651       1
       11076.471       22.142265       34.661146       1
       11099.460       25.654191       32.316776       1
       11122.450       44.831654       31.835184       1
       11145.439       35.609071       30.343897       1
       11168.429       28.670084       30.126985       1
       11191.418       44.271758       29.118085       1
       11214.407      -133.93355       23.239193       1
       11237.397       26.595198       28.313287       1
       11260.386       31.937314       28.799029       1
       11283.375       76.511944       28.225598       1
       11306.365       29.013738       28.112205       1
       11329.354       22.071953       27.025305       1
       11352.343       42.297526       27.637454       1
       11375.333       24.010162       26.553709       1
       11398.322       54.704629       27.120801       1
       11421.311      -10.738653       25.889169       1
       11444.301       58.387753       28.744213       1
       11467.290       40.131719       25.897467       1
       11490.280       33.590412       28.320912       1
       11513.269       7.7157469       25.377925       1
       11536.258       24.075725       26.062346       1
       11559.248       21.640189       25.454377       1
       11582.237       29.333556       25.923141       1
       11605.226       61.947796       25.493705       1
       11628.216       45.327633       25.711350       1
       11651.205       29.820814       24.787482       1
       11674.194       31.887803       25.079879       1
       11697.184       45.098839       25.123034       1
       11720.173       40.524470       24.692036       1
       11743.162       31.598869       23.680537       1
       11766.152       32.362863       23.905650       1
       11789.141       22.580341       23.003751       1
       11812.131       26.259578       23.494440       1
       11835.120       3.1614245       23.012912       1
       11858.109       17.665198       23.011184       1
       11881.099       26.161664       22.490440       1
       11904.088       13.448250       22.735101       1
       11927.077       39.565567       22.623156       1
       11950.067       32.687222       22.861016       1
       11973.056       18.506857       22.224006       1
       11996.045       40.749091       22.804877       1
       12019.035       18.372518       22.542056       1
       12042.024       18.275794       22.620074       1
       12065.013      -10.750917       21.654050       1
       12088.003       1.1626275       21.876668       1
       12110.992       35.465022       21.480075       1
       12133.982       21.421895       21.497626       1
       12156.971       13.434373       20.730543       1
       12179.960       31.927454       21.099767       1
       12202.950       30.610280       20.385537       1
       12225.939      -5.2585292       20.270272       1
       12248.928      -101.44984       15.438324       1
       12271.918       33.410053       20.305461       1
       12294.907       19.036033       19.800431       1
       12317.896       21.009037       19.951898       1
       12340.886       34.309241       19.629226       1
       12363.875       30.253005       20.029313       1
       12386.864       30.234597       19.435040       1
       12409.854       39.076729       19.575683       1
       12432.843       7.3302937       19.005719       1
       12455.832       30.903528       19.562293       1
       12478.822       41.918914       19.159097       1
       12501.811       38.602593       19.379444       1
       12524.801       17.703444       20.186870       1
       12547.790       26.319179       19.475535       1
       12570.779       20.920906       20.015480       1
       12593.769       39.138964       19.674928       1
       12616.758       33.587999       19.657838       1
       12639.747       24.263954       19.335998       1
       12662.737       38.767592       19.495216       1
       12685.726       19.532956       19.279108       1
       12708.715       48.042868       19.458440       1
       12731.705       85.668162       19.536556       1
       12754.694       21.491581       19.473534       1
       12777.683       39.684527       18.825806       1
       12800.673       20.826666       18.694328       1
       12823.662       25.141408       18.493097       1
       12846.652       20.908610       18.494375       1
       12869.641       33.769961       18.500658       1
       12892.630       24.217530       18.247610       1
       12915.620       27.197132       18.377616       1
       12938.609       19.787676       18.147954       1
       12961.598       47.251365       18.292160       1
       12984.588       29.407595       18.049695       1
       13007.577       11.513431       17.575145       1
       13030.566       38.017862       17.878028       1
       13053.556       18.483687       17.523062       1
       13076.545       46.891000       17.798935       1
       13099.534       12.094873       17.353491       1
       13122.524       24.454767       17.371827       1
       13145.513       24.414865       17.314493       1
       13168.503       28.876233       17.327322       1
       13191.492       17.371155       17.078710       1
       13214.481       34.413825       17.022364       1
       13237.471       32.619771       17.008292       1
       13260.460       37.888230       16.991216       1
       13283.449       44.968078       17.005380       1
       13306.439       23.316917       16.741876       1
       13329.428       17.735946       16.652583       1
       13352.417       36.157094       16.860713       1
       13375.407       26.741050       16.664232       1
       13398.396       24.252731       16.602843       1
       13421.385       29.997850       16.552061       1
       13444.375       31.716817       16.456597       1
       13467.364       32.203868       16.359003       1
       13490.354       28.430006       16.276469       1
       13513.343       22.538479       16.093168       1
       13536.332       22.243336       16.133624       1
       13559.322       41.970630       16.034132       1
       13582.311       35.518307       16.185279       1
       13605.300       20.620767       16.044602       1
       13628.290       34.338946       16.168918       1
       13651.279       30.382606       16.036395       1
       13674.268       36.169898       16.082082       1
       13697.258       28.616183       15.953454       1
       13720.247       21.809812       15.899001       1
       13743.236       21.489889       15.974239       1
       13766.226       28.304582       15.932113       1
       13789.215       19.356276       15.819483       1
       13812.205       29.366065       15.975584       1
       13835.194       24.209075       15.953837       1
       13858.183       32.688090       15.917990       1
       13881.173       24.339665       15.882823       1
       13904.162       29.664810       15.889206       1
       13927.151       38.111241       15.776075       1
       13950.141       27.618276       15.712548       1
       13973.130       6.1313688       16.664239       1
       13996.119       34.835201       15.663393       1
       14019.109       14.260315       15.410748       1
       14042.098       37.306498       15.472810       1
       14065.087       21.253871       15.115804       1
       14088.077       25.061071       15.130762       1
       14111.066       45.207479       15.275361       1
       14134.055       38.010848       15.114594       1
       14157.045       34.495692       14.898634       1
       14180.034       27.224603       14.782822       1
       14203.024      -24.013478       12.592546       1
       14226.013       32.202002       14.444173       1
       14249.002       38.957905       14.600115       1
       14271.992       25.059922       14.215956       1
       14294.981       37.344162       14.346196       1
       14317.970       33.019910       14.047415       1
       14340.960       27.704940       13.898791       1
       14363.949       27.898711       13.773833       1
       14386.938       14.728121       13.534415       1
       14409.928       8.7389120       13.839420       1
       14432.917       12.909226       13.316869       1
       14455.906       13.894076       13.464322       1
       14478.896       9.6464101       13.206318       1
       14501.885       15.102934       13.345323       1
       14524.875       25.116285       13.363059       1
       14547.864       20.392043       13.249521       1
       14570.853       18.414938       13.159175       1
       14593.843       24.740662       13.233820       1
       14616.832       15.320911       13.004207       1
       14639.821       17.958172       13.119253       1
       14662.811       14.534369       12.905699       1
       14685.800       22.046307       13.148006       1
       14708.789       11.571075       12.925138       1
       14731.779       13.553216       13.102822       1
       14754.768       25.096884       13.005937       1
       14777.757       7.5753538       13.244845       1
       14800.747       17.684468       12.883372       1
       14823.736       16.094497       13.264708       1
       14846.726       3.5025676       10.323651       1
       14869.715       19.736405       12.820986       1
       14892.704       20.832414       12.728955       1
       14915.694       13.732482       12.767069       1
       14938.683       12.728211       10.256498       1
       14961.672       21.435998       12.663574       1
       14984.662       11.020646       12.357251       1
       15007.651       41.961290       12.792393       1
       15030.640       20.217823       12.488535       1
       15053.630       9.6775697       12.432901       1
       15076.619       17.781491       12.407411       1
       15099.608       7.0194453       11.625739       1
       15122.598       7.6567150       11.956382       1
       15145.587       12.500850       11.674710       1
       15168.577       15.072548       11.963040       1
       15191.566       27.548314       13.247896       1
       15214.555       15.747323       11.917780       1
       15237.545       13.102352       9.9113283       1
       15260.534       12.295386       12.144004       1
       15283.523       15.810627       11.690857       1
       15306.513       23.967912       12.274589       1
       15329.502       26.582562       11.677137       1
       15352.491       9.5388801       11.876479       1
       15375.481       20.070153       11.666527       1
       15398.470       11.075487       11.908094       1
       15421.459       16.269688       11.694198       1
       15444.449       11.297732       11.859652       1
       15467.438       14.700165       11.640256       1
       15490.427       19.040730       12.096351       1
       15513.417       25.690653       11.703440       1
       15536.406       26.265658       11.970142       1
       15559.396       24.126343       11.800438       1
       15582.385       12.171501       11.878736       1
       15605.374       24.243032       11.780159       1
       15628.364       17.295447       11.945531       1
       15651.353       20.272103       11.668293       1
       15674.342       20.274973       11.913818       1
       15697.332       6.4180615       11.417791       1
       15720.321       15.134966       11.820575       1
       15743.310       12.425474       11.537946       1
       15766.300       7.5704665       11.855861       1
       15789.289       16.546355       11.525735       1
       15812.278       10.676742       9.8452621       1
       15835.268       10.606946       11.909858       1
       15858.257       15.538701       11.699957       1
       15881.247       21.414610       11.532597       1
       15904.236       17.655404       11.862077       1
       15927.225       10.925135       11.471406       1
       15950.215       13.645380       11.775207       1
       15973.204       17.616148       11.556363       1
       15996.193       19.417857       11.901010       1
       16019.183       21.785499       11.633729       1
       16042.172       15.620259       11.829467       1
       16065.161       14.782583       11.628419       1
       16088.151       25.076007       11.974001       1
       16111.140       10.988413       11.494019       1
       16134.129       4.2548671       11.648119       1
       16157.119       15.166425       12.159021       1
       16180.108       26.503270       12.111160       1
       16203.098       32.410800       11.946760       1
       16226.087       24.330129       12.087596       1
       16249.076       21.827867       11.907693       1
       16272.066       25.882446       12.278722       1
       16295.055       9.2830202       11.855093       1
       16318.044       17.589913       12.155096       1
       16341.034       20.205890       12.095618       1
       16364.023       10.807031       12.205504       1
       16387.012       17.418926       12.059724       1
       16410.002       19.128173       12.321738       1
       16432.991       8.1942998       11.951555       1
       16455.980       8.9384238       12.257489       1
       16478.970       25.491131       12.173334       1
       16501.959       34.454042       12.673203       1
       16524.949       11.316974       12.527748       1
       16547.938       5.3457394       12.945198       1
       16570.927       5.9329786       13.067679       1
       16593.917       36.753642       14.184131       1
       16616.906       21.475482       14.557909       1
       16639.895       28.913705       15.743215       1
       16662.885       13.436467       16.527331       1
       16685.874      -2.0047843       18.217190       1
       16708.863       24.552181       19.956932       1
       16731.853       32.819791       22.667936       1
       16754.842       15.849902       24.884042       0
       16777.831       19.008142       28.920615       0
       16800.821       2.1008786       32.056484       0
       16823.810      -8.4697920       37.326664       0
       16846.799       17.302724       41.581996       0
       16869.789       2.2658354       47.668664       0
       16892.778       4.4806771       52.356787       0
       16915.768       8.9789470       59.846103       0
       16938.757      -6.3094111       65.070400       0
       16961.746       54.542957       75.514843       0
       16984.736       46.742831       81.567750       0
       17007.725       88.174740       93.642515       0
       17030.714       76.456531       102.23566       0
       17053.704       70.185911       116.30366       0
       17076.693      -29.085325       124.22646       0
       17099.682       71.815950       141.86890       0
       17122.672       115.30505       68678375.       0
       17145.661       139.71404       181.01437       0
       17168.650       167.52111       202.66980       0
       17191.640       353.58276       240.34949       0
       17214.629       103.70855       267.25812       0
       17237.619      -22.734018       308.73388       0
       17260.608      -77.098171       341.37564       0
       17283.597       389.74748       395.05709       0
       17306.587       323.04137       428.29555       0
       17329.576       241.77918       485.55025       0
       17352.565      -427.93816       512.52244       0
       17375.555       53.477032       584.01092       0
