#WAVELENGTH FLUX ERROR MASK
       10192.606      -707.48581       2463.1193       0
       10215.848       477.12589       2646.0707       0
       10239.090      -578.24594       2223.5064       0
       10262.332       43.746763       1947.6119       0
       10285.574      -2159.0105       1613.4580       0
       10308.817      -118.70249       1464.6115       0
       10332.059      -26.063355       1280.4705       0
       10355.301      -878.81500       1168.3678       0
       10378.543       27.986975       1053.5845       0
       10401.785       584.11887       987.10157       0
       10425.027       663.73809       871.50223       0
       10448.270       394.63306       776.12959       0
       10471.512      -717.44604       633.98609       0
       10494.754       323.23456       561.26429       0
       10517.996      -249.91939       455.12397       0
       10541.238       104.22990       400.12602       0
       10564.480      -291.70231       281.06708       0
       10587.723       149.09878       307.78555       0
       10610.965      -202.93456       266.38001       0
       10634.207       9.7112006       246.34214       0
       10657.449       36.212942       220.57021       0
       10680.691       121.12403       194.34861       0
       10703.933       182.27329       165.05848       0
       10727.176       88.334389       141.15902       0
       10750.418       129.23731       114.64930       0
       10773.660       120.40198       104.54103       0
       10796.902       39.212011       79.469055       0
       10820.144       87.448981       70.580480       0
       10843.386       70.062114       60.041884       0
       10866.629       73.937321       46.270581       0
       10889.871       88.500952       49.322101       0
       10913.113       86.095596       46.888870       0
       10936.355       52.794331       42.239141       0
       10959.597       90.516992       40.821271       0
       10982.839       89.086418       37.333598       0
       11006.082       74.273712       35.273969       1
       11029.324       45.972460       31.984042       1
       11052.566       78.104378       31.350244       1
       11075.808       43.530906       28.187174       1
       11099.050       59.039080       27.938631       1
       11122.292       56.849101       26.043632       1
       11145.535       77.862576       26.151956       1
       11168.777       80.247195       24.998880       1
       11192.019       56.172328       25.168271       1
       11215.261       74.572639       24.281041       1
       11238.503       75.412263       24.718656       1
       11261.745       50.528947       23.356753       1
       11284.987       53.258213       24.050792       1
       11308.230       61.794042       23.055758       1
       11331.472       66.216582       23.583570       1
       11354.714       48.455664       22.438118       1
       11377.956       58.753238       23.148227       1
       11401.198       82.666801       22.184772       1
       11424.440       96.738078       23.052333       1
       11447.683       57.836389       21.642111       1
       11470.925       90.487806       22.836080       1
       11494.167       64.244286       21.683013       1
       11517.409       85.599815       22.558691       1
       11540.651       63.851073       21.479383       1
       11563.893       57.145512       22.178262       1
       11587.136       48.008890       21.097639       1
       11610.378       75.371225       21.970068       1
       11633.620       88.017591       21.291527       1
       11656.862       65.974199       21.587636       1
       11680.104       67.055574       20.679970       1
       11703.346       78.203951       21.327734       1
       11726.589       44.926077       19.937846       1
       11749.831       42.497184       20.394804       1
       11773.073       81.681124       19.700644       1
       11796.315       54.712501       20.106039       1
       11819.557       75.774458       19.363750       1
       11842.799       63.579938       19.830813       1
       11866.042       69.299630       18.900033       1
       11889.284       44.012013       16.002863       1
       11912.526       68.452500       18.611509       1
       11935.768       63.744997       19.227823       1
       11959.010       61.919190       18.299578       1
       11982.252       80.516728       19.124262       1
       12005.495       73.353422       18.684708       1
       12028.737       75.022479       18.784297       1
       12051.979       38.355703       13.570944       1
       12075.221       55.155698       18.444601       1
       12098.463       66.025957       18.212215       1
       12121.705       79.678003       18.491162       1
       12144.948       69.814777       17.486779       1
       12168.190       63.929532       18.020705       1
       12191.432       70.611730       17.347722       1
       12214.674       75.278369       17.942618       1
       12237.916       74.824411       18.827105       1
       12261.158       61.187742       17.648160       1
       12284.400       49.802056       16.272731       1
       12307.643       58.532390       17.385617       1
       12330.885       89.367956       16.920360       1
       12354.127       42.547469       13.877915       1
       12377.369       68.127011       16.444179       1
       12400.611       50.958491       17.092709       1
       12423.853       78.811106       16.575892       1
       12447.096       81.917175       17.212594       1
       12470.338       40.535342       12.427339       1
       12493.580       46.945109       14.194765       1
       12516.822       82.520912       16.273318       1
       12540.064       77.934598       17.468919       1
       12563.306       68.821237       18.205087       1
       12586.549       70.711126       17.200222       1
       12609.791       63.610603       17.424852       1
       12633.033       71.911330       17.227668       1
       12656.275       86.189970       17.074029       1
       12679.517       72.481966       17.160294       1
       12702.759       81.356763       16.805500       1
       12726.002       73.438206       16.950233       1
       12749.244       77.694024       16.594462       1
       12772.486       88.464845       16.834289       1
       12795.728       80.370515       16.317530       1
       12818.970       72.133498       16.394557       1
       12842.212       76.896430       16.115765       1
       12865.455       80.773084       16.281004       1
       12888.697       65.886735       15.947419       1
       12911.939       58.003305       16.120710       1
       12935.181       33.743313       13.631948       1
       12958.423       59.370746       15.962654       1
       12981.665       35.855757       12.359024       1
       13004.908       84.885383       15.986308       1
       13028.150       68.098642       15.487833       1
       13051.392       78.609919       15.717384       1
       13074.634       75.175911       15.427190       1
       13097.876       77.649878       15.959641       1
       13121.118       86.658375       15.411652       1
       13144.361       80.109935       15.390414       1
       13167.603       57.613280       14.945916       1
       13190.845       71.411971       15.023153       1
       13214.087       62.143657       14.897925       1
       13237.329       72.512620       14.758615       1
       13260.571       83.725251       15.022540       1
       13283.814       80.680602       14.828697       1
       13307.056       81.630330       14.907235       1
       13330.298       92.675752       14.807143       1
       13353.540       97.375104       14.962135       1
       13376.782       54.246262       11.778776       1
       13400.024       83.354029       14.714576       1
       13423.266       98.880293       14.699105       1
       13446.509       120.47491       14.983036       1
       13469.751       123.51517       14.770434       1
       13492.993       94.975791       14.565325       1
       13516.235       82.592149       14.157623       1
       13539.477       82.200476       14.335715       1
       13562.719       79.914391       14.243708       1
       13585.962       60.109642       14.100932       1
       13609.204       73.857179       14.139841       1
       13632.446       69.281098       14.119282       1
       13655.688       73.536800       14.147888       1
       13678.930       62.147571       14.525684       1
       13702.172       69.187946       14.062117       1
       13725.415       78.242595       14.256838       1
       13748.657       73.631402       14.129835       1
       13771.899       84.006826       14.353435       1
       13795.141       73.728930       14.175245       1
       13818.383       60.006753       14.127924       1
       13841.625       64.881028       14.047442       1
       13864.868       63.601571       14.060400       1
       13888.110       81.620695       14.181215       1
       13911.352       63.459138       14.044796       1
       13934.594       75.433482       13.947416       1
       13957.836       79.247112       14.076363       1
       13981.078       54.026514       13.674820       1
       14004.321       84.604208       14.004301       1
       14027.563       66.922813       13.691554       1
       14050.805       58.235950       14.074470       1
       14074.047       80.534727       13.720779       1
       14097.289       54.166909       13.852475       1
       14120.531       63.929142       13.416030       1
       14143.774       67.892355       13.599902       1
       14167.016       67.184344       13.396769       1
       14190.258       72.413141       13.919967       1
       14213.500       67.743962       13.364676       1
       14236.742       62.763158       13.363047       1
       14259.984       48.428685       10.757858       1
       14283.227       61.617842       13.597225       1
       14306.469       71.389597       13.227924       1
       14329.711       82.579266       13.337667       1
       14352.953       68.612763       13.144309       1
       14376.195       82.707026       13.351413       1
       14399.437       75.296491       13.107463       1
       14422.679       70.396828       13.137928       1
       14445.922       74.355568       13.152889       1
       14469.164       62.699357       13.106545       1
       14492.406       60.732813       12.945764       1
       14515.648       70.357030       13.119487       1
       14538.890       81.441857       13.187369       1
       14562.132       71.825538       13.231458       1
       14585.375       67.823229       13.003595       1
       14608.617       63.416431       13.066769       1
       14631.859       76.135884       13.120161       1
       14655.101       68.746097       13.144801       1
       14678.343       74.131054       13.125481       1
       14701.585       64.278210       13.440510       1
       14724.828       66.288670       13.097262       1
       14748.070       77.771862       13.195736       1
       14771.312       56.003935       13.035286       1
       14794.554       65.213147       13.140971       1
       14817.796       66.560752       13.105633       1
       14841.038       69.333383       13.511683       1
       14864.281       74.586797       13.076702       1
       14887.523       75.112566       13.125553       1
       14910.765       76.387019       13.809137       1
       14934.007       61.986135       13.226285       1
       14957.249       78.929584       13.646980       1
       14980.491       78.117107       12.920496       1
       15003.734       66.906399       12.788190       1
       15026.976       79.580699       12.898778       1
       15050.218       67.601887       12.797455       1
       15073.460       61.077494       12.743076       1
       15096.702       65.860565       12.334127       1
       15119.944       79.904743       12.222415       1
       15143.187       73.374510       12.384876       1
       15166.429       81.373953       12.197431       1
       15189.671       69.845598       12.295529       1
       15212.913       76.609105       12.114345       1
       15236.155       60.096570       12.213795       1
       15259.397       68.136758       11.982234       1
       15282.640       67.816280       12.283254       1
       15305.882       61.656752       11.889833       1
       15329.124       63.071343       12.170117       1
       15352.366       70.791535       11.947132       1
       15375.608       71.841617       12.273473       1
       15398.850       68.262092       12.084142       1
       15422.093       51.917220       9.8433111       1
       15445.335       65.292664       12.004725       1
       15468.577       80.366472       12.487683       1
       15491.819       68.385110       12.398231       1
       15515.061       67.054255       12.274085       1
       15538.303       69.899915       12.056692       1
       15561.545       64.504616       12.297919       1
       15584.788       73.197367       12.162664       1
       15608.030       76.867703       12.437881       1
       15631.272       63.121049       12.042152       1
       15654.514       72.794229       12.341193       1
       15677.756       83.236994       12.194959       1
       15700.998       80.261070       12.364794       1
       15724.241       73.248278       12.006063       1
       15747.483       75.497226       12.301105       1
       15770.725       80.248850       11.989288       1
       15793.967       81.341688       12.341347       1
       15817.209       73.127033       11.932321       1
       15840.451       75.220815       12.311348       1
       15863.694       51.459709       10.206981       1
       15886.936       68.059862       12.118034       1
       15910.178       74.640288       12.009884       1
       15933.420       76.856449       12.334807       1
       15956.662       73.438030       12.029825       1
       15979.904       73.769843       12.367513       1
       16003.147       73.649963       12.066141       1
       16026.389       68.303562       12.312338       1
       16049.631       75.369068       12.180294       1
       16072.873       78.783841       12.435850       1
       16096.115       73.219684       12.129564       1
       16119.357       69.819630       12.366451       1
       16142.600       66.694620       12.115773       1
       16165.842       76.218569       12.427566       1
       16189.084       71.387840       12.232087       1
       16212.326       72.581619       12.529987       1
       16235.568       72.690137       12.303751       1
       16258.810       65.419927       12.616702       1
       16282.053       78.020246       12.448152       1
       16305.295       75.648457       12.716931       1
       16328.537       62.930742       12.418012       1
       16351.779       69.824527       12.729582       1
       16375.021       75.769308       12.559948       1
       16398.263       69.732758       12.820189       1
       16421.506       69.517637       12.503179       1
       16444.748       85.117360       13.007415       1
       16467.990       59.970984       12.501849       1
       16491.232       55.168064       12.923637       1
       16514.474       66.650309       12.879861       1
       16537.716       60.716980       13.425322       1
       16560.958       63.126076       13.455242       1
       16584.201       79.435996       14.566058       1
       16607.443       60.038256       14.782603       1
       16630.685       78.915213       16.421932       1
       16653.927       70.362684       17.134173       1
       16677.169       68.090554       18.983792       1
       16700.411       60.528380       20.260316       1
       16723.654       86.375644       23.200792       1
       16746.896       70.262361       25.529311       1
       16770.138       67.282010       29.667682       0
       16793.380       91.413381       33.105829       0
       16816.622       48.305509       32.301759       0
       16839.864       80.261062       42.713983       0
       16863.107       69.052905       49.435190       0
       16886.349       117.60208       54.471886       0
       16909.591       62.681933       61.967172       0
       16932.833       20.324234       68.957463       0
       16956.075       84.232596       77.066535       0
       16979.317       98.249025       84.614078       0
       17002.560       101.75457       96.916787       0
       17025.802       31.163160       104.12465       0
       17049.044       109.51544       119.75853       0
       17072.286      -16.774711       128.66014       0
       17095.528       129.42151       147.34217       0
       17118.770       234.73060       163.52810       0
       17142.013       52.625203       188.78670       0
       17165.255       267.08900       214.78921       0
       17188.497       96.849056       249.14028       0
       17211.739      -104.82797       279.50273       0
       17234.981       111.84758       327.14772       0
       17258.223       473.86113       364.96081       0
       17281.466       366.93950       416.29683       0
       17304.708       383.97262       452.39100       0
       17327.950       327.01909       508.86521       0
       17351.192      -104.57884       449.69967       0
       17374.434       227.92941       624.20529       0
       17397.676       994.08918       685.90047       0
       17420.919       636.91137       763.81952       0
