#WAVELENGTH FLUX ERROR MASK
       7512.0036      -1985.3607       14358.989       0
       7524.2047       8500.4252       13488.359       0
       7536.4057      -11035.703       10134.880       0
       7548.6067      -698.42869       9166.7755       0
       7560.8078      -2352.3355       6566.2015       0
       7573.0088      -3587.3655       5734.1395       0
       7585.2098      -3992.8189       4653.3944       0
       7597.4109      -2912.5936       3742.2926       0
       7609.6119      -1283.4021       2841.8120       0
       7621.8129       316.28692       3450.8100       0
       7634.0140      -649.03911       2126.0698       0
       7646.2150      -1906.4013       1988.9166       0
       7658.4161      -537.53290       1575.8024       0
       7670.6171       1040.8239       1444.1099       0
       7682.8181      -1595.2775       1074.9969       0
       7695.0192       310.83634       999.86769       0
       7707.2202      -5.0880519       776.75749       0
       7719.4212       143.42495       738.46427       0
       7731.6223      -268.04387       633.33854       0
       7743.8233      -544.63218       587.54930       0
       7756.0243      -454.95168       487.70769       0
       7768.2254       277.35862       499.67729       0
       7780.4264      -44.586775       422.76076       0
       7792.6275      -111.03065       412.74368       0
       7804.8285      -64.052073       347.30907       0
       7817.0295      -107.44252       345.17602       0
       7829.2306       176.33729       285.18454       0
       7841.4316      -180.74398       275.73494       0
       7853.6326      -60.493333       226.08806       0
       7865.8337       182.84372       254.27894       0
       7878.0347      -22.145292       191.14761       0
       7890.2357       71.716277       192.92582       0
       7902.4368       42.491257       200.79688       0
       7914.6378       78.322990       169.81715       0
       7926.8388      -36.026733       149.01134       0
       7939.0399       47.779920       153.39635       0
       7951.2409       89.143238       136.31361       0
       7963.4420       138.16523       142.07397       0
       7975.6430       8.1569048       124.41541       0
       7987.8440      -38.478369       128.23072       0
       8000.0451       71.769165       115.84465       0
       8012.2461      -47.907193       121.53780       0
       8024.4471       31.942013       109.31226       0
       8036.6482       57.583894       114.60590       0
       8048.8492       45.123920       104.92946       0
       8061.0502      -6.5432559       109.00500       0
       8073.2513       15.686476       100.72012       0
       8085.4523       66.818221       106.70661       0
       8097.6534       9.7504908       96.323384       0
       8109.8544       124.51930       103.37491       0
       8122.0554       69.175035       94.997879       0
       8134.2565      -4.2673923       98.302499       0
       8146.4575       6.5785465       90.777106       0
       8158.6585       81.799276       95.678490       1
       8170.8596      -15.096039       87.462297       1
       8183.0606       8.2503570       91.165419       1
       8195.2616      -2.5346697       84.048798       1
       8207.4627       53.140266       89.233130       1
       8219.6637      -21.142944       87.784752       1
       8231.8647       22.438870       85.558976       1
       8244.0658       8.5740202       76.830080       1
       8256.2668       24.071607       80.548133       1
       8268.4679      -19.859042       75.648645       1
       8280.6689       77.354101       76.719930       1
       8292.8699      -6.2028030       69.832102       1
       8305.0710      -23.546631       73.468285       1
       8317.2720       10.126617       67.768885       1
       8329.4730       22.911554       68.478842       1
       8341.6741       47.680271       66.304144       1
       8353.8751       18.927133       66.705305       1
       8366.0761       30.810131       64.538492       1
       8378.2772       6.8064113       65.817680       1
       8390.4782      -14.430652       61.935416       1
       8402.6793      -43.232852       63.373555       1
       8414.8803       37.067568       60.685346       1
       8427.0813      -4.6532418       61.125866       1
       8439.2824      -7.3736004       62.192018       1
       8451.4834       81.215557       59.925906       1
       8463.6844       3.6668131       56.384515       1
       8475.8855      -9.6374120       57.137687       1
       8488.0865       25.076486       54.928610       1
       8500.2875       29.742349       56.207974       1
       8512.4886       45.173871       53.245311       1
       8524.6896       60.113683       55.425074       1
       8536.8906       22.344631       52.421574       1
       8549.0917      -5.5877289       54.107466       1
       8561.2927       26.704666       52.061877       1
       8573.4938       48.599414       53.924939       1
       8585.6948      -23.781580       51.059383       1
       8597.8958       51.949276       53.570850       1
       8610.0969      -6.0878415       50.538370       1
       8622.2979      -6.3927092       53.227480       1
       8634.4989       43.917168       50.341271       1
       8646.7000       12.926087       52.287819       1
       8658.9010       9.4797905       49.742607       1
       8671.1020     -0.16216312       50.624166       1
       8683.3031      -11.064888       48.166919       1
       8695.5041       65.305588       49.928240       1
       8707.7052       8.7199630       46.768660       1
       8719.9062       46.243777       47.991577       1
       8732.1072       9.0402059       45.007111       1
       8744.3083      -25.837239       45.914597       1
       8756.5093       44.463379       44.042763       1
       8768.7103       59.408961       45.570445       1
       8780.9114       2.6411822       42.819044       1
       8793.1124       20.984811       44.276950       1
       8805.3134       9.2599993       41.829530       1
       8817.5145       51.387059       44.468096       1
       8829.7155       25.670182       41.037040       1
       8841.9165       21.826012       42.649138       1
       8854.1176       27.770139       40.181128       1
       8866.3186       35.955653       42.083176       1
       8878.5197       31.365470       39.421344       1
       8890.7207       17.436881       40.912212       1
       8902.9217       13.025745       38.486600       1
       8915.1228       37.057471       40.532040       1
       8927.3238       49.819838       38.299656       1
       8939.5248       46.871865       39.895096       1
       8951.7259       41.395001       37.428324       1
       8963.9269       18.648462       51.267682       1
       8976.1279      -10.428111       36.139047       1
       8988.3290       32.471174       38.387222       1
       9000.5300       21.139117       35.873432       1
       9012.7311       61.995978       38.096825       1
       9024.9321       35.273111       35.502683       1
       9037.1331       26.609481       37.418954       1
       9049.3342       10.754886       35.289309       1
       9061.5352      -25.929988       36.807267       1
       9073.7362       12.880629       34.703595       1
       9085.9373       22.643214       36.728166       1
       9098.1383       39.939634       34.244977       1
       9110.3393       12.631033       36.433856       1
       9122.5404      -12.021400       32.901714       1
       9134.7414       2.3551506       34.952698       1
       9146.9424       28.982786       32.490971       1
       9159.1435       56.643198       34.939670       1
       9171.3445       34.641690       32.090902       1
       9183.5456       19.251974       33.628723       1
       9195.7466       32.067644       31.507905       1
       9207.9476       18.833737       33.271259       1
       9220.1487       8.8062914       30.693603       1
       9232.3497       39.484877       32.979910       1
       9244.5507       18.959817       28.986409       1
       9256.7518       29.785759       33.215546       1
       9268.9528       9.9797238       28.431764       1
       9281.1538       30.086508       33.314666       1
       9293.3549       26.606371       28.312235       1
       9305.5559       3.3160482       32.322884       1
       9317.7570       7.9413289       27.734691       1
       9329.9580       46.694330       32.374264       1
       9342.1590       19.796198       27.537094       1
       9354.3601       17.644972       31.863335       1
       9366.5611       2.1875997       27.165889       1
       9378.7621       14.883497       42.993270       1
       9390.9632      -4.6543089       26.827473       1
       9403.1642       29.745775       31.688469       1
       9415.3652       14.947162       26.515516       1
       9427.5663       27.255807       30.682539       1
       9439.7673       24.299780       26.252910       1
       9451.9683       32.894979       30.416068       1
       9464.1694       9.6170735       25.726400       1
       9476.3704       36.466524       30.128216       1
       9488.5715       19.395738       25.429305       1
       9500.7725       23.068298       29.469799       1
       9512.9735       27.635614       25.173963       1
       9525.1746       32.425552       29.436504       1
       9537.3756       24.149620       24.764499       1
       9549.5766       24.857639       29.033222       1
       9561.7777       4.4347642       25.551688       1
       9573.9787       34.645249       35.226880       1
       9586.1797       30.344703       23.719031       1
       9598.3808       17.626561       28.490557       1
       9610.5818       26.907781       23.166992       1
       9622.7829      -2.1333995       28.585699       1
       9634.9839       35.986293       22.653343       1
       9647.1849       55.695001       38.581770       1
       9659.3860       16.402538       22.502372       1
       9671.5870       37.084891       27.874291       1
       9683.7880       20.241070       21.988123       1
       9695.9891       40.759731       28.330286       1
       9708.1901       61.460952       21.955997       1
       9720.3911       40.291437       27.654991       1
       9732.5922       28.237343       23.988608       1
       9744.7932       22.209760       30.404679       1
       9756.9942       22.702363       21.069828       1
       9769.1953       36.684427       26.907842       1
       9781.3963       42.122337       21.077961       1
       9793.5974       7.0354687       26.395029       1
       9805.7984       31.746379       20.883078       1
       9817.9994       34.833966       30.075052       1
       9830.2005       54.191068       24.347897       1
       9842.4015       40.680985       26.471462       1
       9854.6025       22.696512       24.437839       1
       9866.8036       40.848632       27.118655       1
       9879.0046       54.661041       20.787555       1
       9891.2056       46.945013       26.321720       1
       9903.4067       45.391283       20.748228       1
       9915.6077       35.852247       25.997021       1
       9927.8088       30.663130       20.449861       1
       9940.0098       54.454946       26.054380       1
       9952.2108       42.527309       20.277594       1
       9964.4119       42.510953       25.921265       1
       9976.6129       40.685955       20.139204       1
       9988.8139       54.866532       25.359882       1
       10001.015       55.508510       19.872445       1
       10013.216       97.247465       25.519550       1
       10025.417       56.602659       19.664448       1
       10037.618       48.849562       25.267400       1
       10049.819       50.122464       19.545842       1
       10062.020       48.564437       24.940495       1
       10074.221       59.776296       19.571225       1
       10086.422       49.688889       25.331632       1
       10098.623       51.599044       19.575840       1
       10110.824       51.283764       24.966083       1
       10123.025       58.605164       19.492988       1
       10135.226       42.806896       24.561380       1
       10147.427       48.863199       19.245464       1
       10159.628       51.567333       24.766555       1
       10171.829       61.929965       19.520738       1
       10184.031       53.888408       23.814062       1
       10196.232       78.459659       19.476247       1
       10208.433       62.437871       23.719494       1
       10220.634       55.818787       19.213581       1
       10232.835       51.424263       23.454397       1
       10245.036       43.943458       18.870067       1
       10257.237       70.363784       23.607506       1
       10269.438       58.153326       18.768724       1
       10281.639       52.112384       22.939491       1
       10293.840       35.160482       18.363159       1
       10306.041       35.099280       22.726648       1
       10318.242       34.803047       18.221741       1
       10330.443       48.789138       22.484558       1
       10342.644       65.911862       21.977936       1
       10354.845       55.199896       22.482241       1
       10367.046       50.538819       18.289049       1
       10379.247       83.938718       22.780795       1
       10391.448       84.992892       18.467906       1
       10403.649       64.404137       22.829899       1
       10415.850       53.799708       18.188943       1
       10428.051       46.331819       22.557993       1
       10440.252       52.994286       18.107432       1
       10452.453       49.805202       22.201199       1
       10464.654       62.302606       18.163032       1
       10476.855       51.094376       21.961455       1
       10489.056       53.966130       18.054798       1
       10501.257       102.11153       22.618516       1
       10513.458       81.278798       18.343555       1
       10525.660       63.218098       22.731535       1
       10537.861       67.753943       19.430695       1
       10550.062       52.737923       22.550293       1
       10562.263       49.032535       18.086039       1
       10574.464       55.884301       22.192500       1
       10586.665       59.875942       18.076721       1
       10598.866       58.193343       22.301047       1
       10611.067       71.827792       18.023234       1
       10623.268       84.204095       22.197577       1
       10635.469       57.552094       17.739704       1
       10647.670       56.554955       21.660290       1
       10659.871       65.640627       17.605270       1
       10672.072       44.486932       21.406355       1
       10684.273       77.698469       17.604412       1
       10696.474       79.036354       21.680570       1
       10708.675       69.561615       17.592078       1
       10720.876       61.614048       21.038157       1
       10733.077       78.141052       17.609160       1
       10745.278       75.668804       21.758791       1
       10757.479       69.174131       17.427106       1
       10769.680       81.108866       21.525390       1
       10781.881       85.193185       17.562257       1
       10794.082       112.45040       22.723513       1
       10806.283       81.372726       17.192651       1
       10818.484       83.337807       23.436545       1
       10830.685       71.282231       17.311701       1
       10842.886       63.967761       21.125901       1
       10855.087       64.731761       17.238724       1
       10867.289       79.748945       21.195447       1
       10879.490       81.921491       19.214983       1
       10891.691       82.709547       21.014722       1
       10903.892       63.549784       17.098769       1
       10916.093       76.818825       21.112684       1
       10928.294       74.061860       17.167492       1
       10940.495       70.930470       21.327880       1
       10952.696       63.772148       17.063107       1
       10964.897       48.091888       21.835679       1
       10977.098       79.540074       17.195852       1
       10989.299       67.682544       21.344601       1
       11001.500       66.437673       17.131129       1
       11013.701       73.763788       21.133481       1
       11025.902       65.658216       17.090499       1
       11038.103       90.440582       21.174249       1
       11050.304       75.879413       17.137622       1
       11062.505       63.686412       21.007750       1
       11074.706       74.312596       17.119889       1
       11086.907       72.385555       21.215456       1
       11099.108       61.210125       17.316847       1
       11111.309       77.649880       25.868688       1
       11123.510       74.763806       16.843605       1
       11135.711       90.208384       21.651888       1
       11147.912       73.036189       16.890296       1
       11160.113       74.877633       21.743282       1
       11172.314       80.477793       18.985512       1
       11184.515       95.092067       21.734195       1
       11196.716       80.963648       16.963364       1
       11208.918       68.940309       21.400605       0
       11221.119       64.854820       16.732812       0
       11233.320       47.095767       21.512208       0
       11245.521       52.526574       16.672628       0
       11257.722       79.657603       21.456107       0
       11269.923       69.760048       16.888092       0
       11282.124       81.310276       21.763927       0
       11294.325       72.000489       16.866393       0
       11306.526       112.82844       21.904529       0
       11318.727       68.855152       17.103919       0
       11330.928       64.181804       22.222815       0
       11343.129       75.917563       21.334267       0
       11355.330       70.085510       24.243531       0
       11367.531       65.670716       20.214827       0
       11379.732       75.651050       28.208779       0
       11391.933       97.757772       26.553028       0
       11404.134       108.15218       34.352740       0
       11416.335       96.430385       30.331354       0
       11428.536       64.704890       53.099567       0
       11440.737       35.249675       38.962411       0
       11452.938       67.968206       56.092152       0
       11465.139       128.24508       50.344557       0
       11477.340       79.649090       70.286456       0
       11489.541       120.64839       61.282144       0
       11501.742       99.293195       86.241800       0
       11513.943       51.099342       75.402651       0
       11526.144       29.130030       109.92322       0
       11538.346       118.23478       111.05094       0
       11550.547       48.494846       151.86677       0
       11562.748       197.89390       145.74747       0
       11574.949      -21.513109       228.79646       0
       11587.150       231.00977       224.85262       0
       11599.351      -198.23593       350.95662       0
       11611.552       150.34268       341.03231       0
       11623.753       195.17973       528.15511       0
       11635.954       152.03564       523.74072       0
       11648.155       365.73390       790.35309       0
       11660.356       97.858456       812.99785       0
       11672.557      -780.69943       1281.0064       0
       11684.758      -11.462310       1389.5245       0
       11696.959       1757.5452       2219.7117       0
       11709.160       988.16830       2287.9770       0
       11721.361       187.26870       3692.2915       0
       11733.562       1295.5211       3196.2064       0
       11745.763      -4216.7452       4277.4205       0
       11757.964       960.73971       3278.8370       0
       11770.165       1243.0620       4081.9500       0
       11782.366       600.01348       3106.2024       0
       11794.567      -3549.1511       4033.3203       0
       11806.768      -711.36183       3372.8170       0
       11818.969       1438.1293       4821.7349       0
       11831.170      -86.275825       4362.6349       0
       11843.371      -628.78662       6589.0441       0
       11855.572       100.94000       6269.1158       0
       11867.773      -3073.6440       9188.3608       0
       11879.975      -2198.6613       8369.3589       0
       11892.176       686.70398       12022.155       0
