#WAVELENGTH FLUX ERROR MASK
       7512.0036      -1224.4415       13573.942       0
       7524.2047       230.72068       13062.245       0
       7536.4057      -8759.1445       9669.1168       0
       7548.6067       150.86960       8879.2268       0
       7560.8078      -117.58114       6148.6277       0
       7573.0088      -4149.8165       5530.3545       0
       7585.2098      -3921.3879       4015.8177       0
       7597.4109       23.617173       3690.9716       0
       7609.6119      -2122.4636       2691.6399       0
       7621.8129      -616.39230       2878.8866       0
       7634.0140      -1569.6682       1980.6649       0
       7646.2150      -1513.8723       1951.4990       0
       7658.4161      -785.12293       1466.4392       0
       7670.6171      -541.43184       1396.2090       0
       7682.8181      -511.13007       1136.5083       0
       7695.0192      -399.90420       970.20410       0
       7707.2202      -483.29288       716.08733       0
       7719.4212      -603.35266       711.49520       0
       7731.6223      -129.18401       571.65407       0
       7743.8233       362.16208       615.50379       0
       7756.0243      -18.104950       458.46552       0
       7768.2254       131.48200       485.80227       0
       7780.4264      -48.195142       392.00834       0
       7792.6275       13.776282       409.45974       0
       7804.8285      -165.25296       343.25564       0
       7817.0295      -145.46577       332.25700       0
       7829.2306      -226.40269       259.77331       0
       7841.4316      -16.129887       270.52967       0
       7853.6326      -121.36356       211.23625       0
       7865.8337       221.39159       228.49736       0
       7878.0347      -47.739286       176.27250       0
       7890.2357       47.631347       187.12696       0
       7902.4368      -50.858986       167.06766       0
       7914.6378      -154.79031       162.71966       0
       7926.8388      -47.555002       136.70267       0
       7939.0399      -69.080129       191.15222       0
       7951.2409      -36.176949       124.31892       0
       7963.4420       68.368895       137.54820       0
       7975.6430      -9.7368407       114.31495       0
       7987.8440      0.37604778       125.36936       0
       8000.0451       11.444597       106.84431       0
       8012.2461       4.5951040       117.56568       0
       8024.4471      -36.423027       108.78187       0
       8036.6482       3.9822276       111.60285       0
       8048.8492      -94.973061       94.426109       0
       8061.0502      -5.0678896       106.60959       0
       8073.2513      -6.2819950       92.867295       0
       8085.4523      -39.923662       103.19372       0
       8097.6534       2.5443591       89.236834       0
       8109.8544       34.967488       107.03972       0
       8122.0554      -3.2571544       91.307428       0
       8134.2565       8.4685673       96.338531       0
       8146.4575      0.32965878       88.452502       0
       8158.6585      -38.076292       92.711776       1
       8170.8596      -6.1317378       80.959282       1
       8183.0606     -0.83457854       100.23605       1
       8195.2616      -54.503595       75.643866       1
       8207.4627      -11.657045       94.163929       1
       8219.6637       51.319607       75.346734       1
       8231.8647      -38.079214       82.120937       1
       8244.0658      -7.0631307       82.215010       1
       8256.2668       57.000247       94.898307       1
       8268.4679       8.9054712       69.287248       1
       8280.6689       34.396295       74.643612       1
       8292.8699       28.680906       64.043763       1
       8305.0710       15.526572       71.534108       1
       8317.2720      -1.9391606       60.882073       1
       8329.4730       13.780176       70.400901       1
       8341.6741       15.814008       58.511233       1
       8353.8751       41.627543       68.570878       1
       8366.0761      -10.244659       57.454226       1
       8378.2772       6.7299389       70.324544       1
       8390.4782     -0.82569865       57.693105       1
       8402.6793      -45.298479       64.372416       1
       8414.8803       21.294916       54.001406       1
       8427.0813       8.4812791       62.740679       1
       8439.2824       7.9541303       52.356414       1
       8451.4834       49.447903       60.931107       1
       8463.6844      -30.207033       50.605715       1
       8475.8855      -8.3901091       68.227994       1
       8488.0865       9.4615810       53.334787       1
       8500.2875       14.595971       57.668656       1
       8512.4886      -11.766171       52.793033       1
       8524.6896      -18.623553       59.700413       1
       8536.8906       8.8391511       50.360262       1
       8549.0917      -5.1441276       55.152512       1
       8561.2927       19.897779       47.053634       1
       8573.4938      -8.1076602       55.231186       1
       8585.6948      -9.3003943       48.152000       1
       8597.8958      -8.8707858       54.596738       1
       8610.0969      -11.811330       45.794339       1
       8622.2979       17.250784       54.377002       1
       8634.4989      -2.4606748       45.759824       1
       8646.7000      0.59134473       53.242304       1
       8658.9010       13.957321       45.266375       1
       8671.1020       9.8827499       52.343294       1
       8683.3031       32.424211       44.078602       1
       8695.5041       16.541337       51.238954       1
       8707.7052       25.515992       42.480581       1
       8719.9062      -9.0268722       54.297100       1
       8732.1072       6.9199291       42.103657       1
       8744.3083      -7.9498762       46.916322       1
       8756.5093       7.7084379       42.776470       1
       8768.7103       15.377430       47.224538       1
       8780.9114      -7.8867070       38.768241       1
       8793.1124       42.533091       45.387451       1
       8805.3134      -6.2931516       38.138717       1
       8817.5145       30.295013       44.554157       1
       8829.7155       12.963348       37.478403       1
       8841.9165       29.247798       47.068092       1
       8854.1176       25.327683       36.772371       1
       8866.3186       17.989980       46.414966       1
       8878.5197      -1.3393277       35.897719       1
       8890.7207       29.590020       42.605554       1
       8902.9217       16.386814       35.520964       1
       8915.1228       18.185110       41.570054       1
       8927.3238       27.738577       35.088328       1
       8939.5248       25.808104       45.707164       1
       8951.7259      -13.422716       33.802297       1
       8963.9269       27.005632       42.680869       1
       8976.1279       26.116001       33.765423       1
       8988.3290       19.343710       39.255944       1
       9000.5300       8.8974438       34.526230       1
       9012.7311      -3.6075798       38.309761       1
       9024.9321       2.8798369       32.821431       1
       9037.1331       12.764207       38.282621       1
       9049.3342       6.5560315       32.648670       1
       9061.5352       25.298835       38.269062       1
       9073.7362      -4.1728309       32.252382       1
       9085.9373       26.633798       37.768489       1
       9098.1383       2.9294135       31.613901       1
       9110.3393       9.1407898       36.845812       1
       9122.5404      -13.797833       30.827380       1
       9134.7414       7.5486805       35.894804       1
       9146.9424       15.103347       30.322851       1
       9159.1435       31.260903       35.416641       1
       9171.3445       14.530045       29.916665       1
       9183.5456       11.792472       38.733817       1
       9195.7466       26.313411       29.489019       1
       9207.9476       35.967360       34.393319       1
       9220.1487      -8.2976681       31.566364       1
       9232.3497       21.991377       33.869436       1
       9244.5507       33.576157       29.437269       1
       9256.7518      -3.6335927       32.094228       1
       9268.9528       13.799475       28.892123       1
       9281.1538       8.5129347       31.951569       1
       9293.3549       15.511616       28.506244       1
       9305.5559       12.312702       31.498477       1
       9317.7570      -17.560963       27.459583       1
       9329.9580       14.092932       31.417812       1
       9342.1590       10.333288       27.956803       1
       9354.3601       16.168422       31.026371       1
       9366.5611       22.964541       27.905263       1
       9378.7621       31.304279       30.855470       1
       9390.9632       24.101951       27.553369       1
       9403.1642       13.419653       30.351181       1
       9415.3652       19.398899       27.066536       1
       9427.5663       38.929963       30.108554       1
       9439.7673       37.050618       26.882292       1
       9451.9683       22.121890       29.648737       1
       9464.1694       9.9830833       26.232443       1
       9476.3704       19.228475       30.124181       1
       9488.5715       12.824904       25.995628       1
       9500.7725      -5.6810476       28.587239       1
       9512.9735       13.860874       25.719810       1
       9525.1746       28.273951       28.620418       1
       9537.3756       18.281200       25.384176       1
       9549.5766       17.432220       33.830751       1
       9561.7777       17.356781       24.953850       1
       9573.9787      0.17521574       35.831232       1
       9586.1797       3.1641655       24.196581       1
       9598.3808      -16.519066       27.436688       1
       9610.5818       15.643982       23.705949       1
       9622.7829       15.722377       27.396980       1
       9634.9839       1.1092872       23.099440       1
       9647.1849       30.095891       27.399246       1
       9659.3860       11.600045       23.837559       1
       9671.5870       24.976907       27.173888       1
       9683.7880       4.2301802       22.373689       1
       9695.9891       26.187580       27.085771       1
       9708.1901       4.5310240       21.987815       1
       9720.3911     -0.75819906       26.618825       1
       9732.5922       22.413601       22.571559       1
       9744.7932       17.112165       27.933692       1
       9756.9942       10.277578       22.680918       1
       9769.1953       15.363439       26.182555       1
       9781.3963       22.050813       23.024290       1
       9793.5974       26.015422       29.279449       1
       9805.7984       18.520670       21.126549       1
       9817.9994       45.861058       30.623715       1
       9830.2005       13.831627       21.053271       1
       9842.4015       33.558790       26.010136       1
       9854.6025       23.995610       21.962360       1
       9866.8036       25.527704       25.571929       1
       9879.0046       11.894244       20.883945       1
       9891.2056       26.099546       25.526404       1
       9903.4067       22.136385       20.793338       1
       9915.6077       34.088257       25.422220       1
       9927.8088       29.808380       21.678006       1
       9940.0098       36.758939       25.266640       1
       9952.2108       30.988516       20.469031       1
       9964.4119       17.916223       24.790389       1
       9976.6129       26.996311       20.136087       1
       9988.8139       32.219769       27.718969       1
       10001.015       44.176869       20.054283       1
       10013.216       43.399330       24.573526       1
       10025.417       42.095854       21.841780       1
       10037.618       24.489574       24.044742       1
       10049.819       41.514562       19.757109       1
       10062.020       40.197193       24.267150       1
       10074.221       41.525226       19.805508       1
       10086.422       20.758607       24.271299       1
       10098.623       28.456950       19.658245       1
       10110.824       29.248552       24.084502       1
       10123.025       26.583822       19.690548       1
       10135.226       43.982321       24.021334       1
       10147.427       44.941491       19.676462       1
       10159.628       47.433579       23.896958       1
       10171.829       44.279238       19.166137       1
       10184.031       35.309236       24.321726       1
       10196.232       40.449801       18.954184       1
       10208.433       44.653651       24.073690       1
       10220.634       45.909054       18.816391       1
       10232.835       35.983836       23.877493       1
       10245.036       31.236299       18.458276       1
       10257.237       34.258818       23.762128       1
       10269.438       48.859926       18.441920       1
       10281.639       35.366667       23.417463       1
       10293.840       31.702304       18.138252       1
       10306.041       36.061261       23.281556       1
       10318.242       32.764359       18.078512       1
       10330.443       46.128550       23.023648       1
       10342.644       38.048985       18.024059       1
       10354.845       40.539521       23.133540       1
       10367.046       36.915334       18.021699       1
       10379.247       50.785668       22.969433       1
       10391.448       45.314426       17.998314       1
       10403.649       42.352294       22.809200       1
       10415.850       42.703924       17.885914       1
       10428.051       44.125540       22.772130       1
       10440.252       32.307374       17.725267       1
       10452.453       29.762428       22.834364       1
       10464.654       40.647761       17.760221       1
       10476.855       49.777210       22.634829       1
       10489.056       40.549860       18.201552       1
       10501.257       55.464582       22.844372       1
       10513.458       44.948176       17.805667       1
       10525.660       73.629011       27.529829       1
       10537.861       45.877956       17.877506       1
       10550.062       52.926178       22.950275       1
       10562.263       32.225984       18.917230       1
       10574.464       47.840552       22.781124       1
       10586.665       51.008627       17.788736       1
       10598.866       41.351206       22.593713       1
       10611.067       42.976066       17.622566       1
       10623.268       42.598073       22.514492       1
       10635.469       39.547249       18.473328       1
       10647.670       55.221333       22.245659       1
       10659.871       46.590473       17.309502       1
       10672.072       54.523736       21.987822       1
       10684.273       50.785076       18.464610       1
       10696.474       59.383417       22.053798       1
       10708.675       47.062060       17.820690       1
       10720.876       47.380938       21.615189       1
       10733.077       45.565525       17.146622       1
       10745.278       60.037880       22.026798       1
       10757.479       57.500783       17.107733       1
       10769.680       45.614364       22.076466       1
       10781.881       61.704987       17.217949       1
       10794.082       47.612029       21.762453       1
       10806.283       57.952775       19.111893       1
       10818.484       49.099479       21.874103       1
       10830.685       56.608642       17.044945       1
       10842.886       61.906918       21.621990       1
       10855.087       54.367595       18.675442       1
       10867.289       39.827145       21.934652       1
       10879.490       65.689495       19.360092       1
       10891.691       52.481903       21.768680       1
       10903.892       50.377704       16.760822       1
       10916.093       62.326023       21.848049       1
       10928.294       46.442034       19.712334       1
       10940.495       43.862000       21.790380       1
       10952.696       54.235830       16.858421       1
       10964.897       58.410639       24.362728       1
       10977.098       41.502127       16.857937       1
       10989.299       52.460756       21.511566       1
       11001.500       47.787963       16.808885       1
       11013.701       45.717479       21.459695       1
       11025.902       54.746303       16.777067       1
       11038.103       49.958840       21.263418       1
       11050.304       42.832960       16.641866       1
       11062.505       53.904212       21.460657       1
       11074.706       56.710821       16.722233       1
       11086.907       64.067928       21.980589       1
       11099.108       51.241440       17.732566       1
       11111.309       55.568969       23.128417       1
       11123.510       55.203238       17.564277       1
       11135.711       59.079954       20.965383       1
       11147.912       47.617600       17.017125       1
       11160.113       59.522781       20.917480       1
       11172.314       50.987917       17.016441       1
       11184.515       47.817051       20.837825       1
       11196.716       49.123376       16.879522       1
       11208.918       38.497194       20.627425       0
       11221.119       45.036616       17.506470       0
       11233.320       51.473594       20.745525       0
       11245.521       52.466419       16.925074       0
       11257.722       56.142892       25.189927       0
       11269.923       49.482160       16.902183       0
       11282.124       47.003590       20.591845       0
       11294.325       46.772134       17.410324       0
       11306.526       50.545423       21.049753       0
       11318.727       46.587380       17.180218       0
       11330.928       56.509953       21.696880       0
       11343.129       49.922762       18.871603       0
       11355.330       67.496206       23.837675       0
       11367.531       54.318777       20.334826       0
       11379.732       60.776044       27.204563       0
       11391.933       47.080621       24.174794       0
       11404.134       64.023863       33.248561       0
       11416.335       50.405013       30.328046       0
       11428.536       74.257317       42.571496       0
       11440.737       66.586095       40.917929       0
       11452.938       60.572693       54.556812       0
       11465.139       52.006176       55.186658       0
       11477.340       70.980191       68.636564       0
       11489.541       50.844622       61.735825       0
       11501.742       52.700607       93.851149       0
       11513.943       67.217052       76.791744       0
       11526.144       62.032460       106.41299       0
       11538.346       5.6421156       101.18585       0
       11550.547       109.03257       167.02135       0
       11562.748       100.77760       147.61836       0
       11574.949       69.084858       226.04084       0
       11587.150       163.78485       228.21345       0
       11599.351      -208.93208       347.54976       0
       11611.552       164.94375       348.51856       0
       11623.753      -25.056329       516.31094       0
       11635.954      -299.88673       507.12329       0
       11648.155       330.88584       854.62422       0
       11660.356       623.04147       803.89952       0
       11672.557      -29.533084       1428.2869       0
       11684.758       1517.1515       1385.3237       0
       11696.959       988.16438       2171.1338       0
       11709.160       139.86989       2361.8871       0
       11721.361      -957.98866       3545.5461       0
       11733.562       1338.6240       3277.5466       0
       11745.763       2526.1027       4151.5550       0
       11757.964       534.11073       3320.9743       0
       11770.165      -515.97289       4435.5106       0
       11782.366      -2706.1304       3124.6492       0
       11794.567      -66.533735       4408.3913       0
       11806.768       1257.9760       3420.8967       0
       11818.969       2881.3534       4730.7011       0
       11831.170       644.61372       4423.4097       0
       11843.371      -1877.1731       6443.6853       0
       11855.572       5610.9559       6305.6395       0
       11867.773       6270.5120       9047.3961       0
       11879.975      -1901.7117       8372.4214       0
       11892.176       6257.8824       11823.695       0
