#WAVELENGTH FLUX ERROR MASK
       10192.606      -427.88634       4446.0071       0
       10215.848       204.51008       4083.9175       0
       10239.090       385.75639       3528.7202       0
       10262.332      -995.41422       3018.9113       0
       10285.574      -764.07937       2600.7933       0
       10308.817      -316.39486       2260.1581       0
       10332.059      -493.67312       2004.1341       0
       10355.301       285.07138       1824.5746       0
       10378.543      -431.02982       1648.9974       0
       10401.785      -4.2601922       1521.3781       0
       10425.027      -402.24174       1359.7923       0
       10448.270      -350.07086       1189.7112       0
       10471.512      -213.04923       1032.4046       0
       10494.754      -58.543140       859.64222       0
       10517.996      -98.721918       721.38102       0
       10541.238       185.59693       618.65348       0
       10564.480      -125.55000       546.36963       0
       10587.723      -195.58559       480.08815       0
       10610.965       113.02375       423.28625       0
       10634.207       25.077637       383.66967       0
       10657.449      -69.452764       343.56566       0
       10680.691      -50.408170       294.98376       0
       10703.933      -91.026981       256.76209       0
       10727.176      -5.8741614       214.56025       0
       10750.418      -54.179035       180.50725       0
       10773.660      -7.8772432       146.50072       0
       10796.902      -9.4915862       124.35745       0
       10820.144      -20.366024       104.22954       0
       10843.386       18.791732       91.891211       0
       10866.629       36.999825       82.234003       0
       10889.871       35.987992       75.840914       0
       10913.113       25.563950       69.506913       0
       10936.355       19.593084       65.306394       0
       10959.597       13.346374       60.116949       0
       10982.839       15.887814       56.602818       0
       11006.082       2.1979750       52.192821       1
       11029.324       8.3423681       48.987562       1
       11052.566       10.542031       44.428366       1
       11075.808       12.493658       42.958610       1
       11099.050       20.247972       40.441264       1
       11122.292       21.527768       39.040149       1
       11145.535       23.589879       37.345792       1
       11168.777       15.331526       36.887454       1
       11192.019       22.627030       35.911437       1
       11215.261       12.636488       35.513190       1
       11238.503       15.412608       34.850073       1
       11261.745       11.479377       34.628012       1
       11284.987       23.790530       33.251433       1
       11308.230       21.333415       32.972091       1
       11331.472       23.035338       32.489188       1
       11354.714       29.893511       32.954184       1
       11377.956       7.3468123       32.999487       1
       11401.198       35.120722       31.765041       1
       11424.440       28.813393       32.228191       1
       11447.683       25.596986       31.180026       1
       11470.925       24.533728       31.602767       1
       11494.167       22.337204       27.800601       1
       11517.409       24.979601       31.562197       1
       11540.651       20.606901       30.697253       1
       11563.893       21.890393       31.191500       1
       11587.136       30.688733       30.570877       1
       11610.378       17.465766       30.917868       1
       11633.620       19.120690       30.421003       1
       11656.862       10.840476       27.468894       1
       11680.104       21.019891       29.367880       1
       11703.346       21.718538       29.260195       1
       11726.589       30.074013       28.598826       1
       11749.831       23.040787       28.252293       1
       11773.073      0.94379437       27.533610       1
       11796.315       33.341511       27.753904       1
       11819.557       30.261977       26.049615       1
       11842.799       18.036858       27.207943       1
       11866.042       34.694227       26.473921       1
       11889.284       20.213450       25.600434       1
       11912.526       19.741118       25.959379       1
       11935.768       32.562036       25.638287       1
       11959.010       28.539317       24.938733       1
       11982.252       19.991589       25.327627       1
       12005.495       25.628396       24.792622       1
       12028.737       21.976863       24.883911       1
       12051.979       20.817146       24.469672       1
       12075.221       24.188926       24.482233       1
       12098.463       26.680733       24.080278       1
       12121.705       28.511073       24.204613       1
       12144.948       25.066611       23.750927       1
       12168.190       21.155832       23.646961       1
       12191.432       25.441574       23.465875       1
       12214.674       26.668359       23.402658       1
       12237.916       33.848820       23.080510       1
       12261.158       21.519888       23.068404       1
       12284.400       21.254538       21.562941       1
       12307.643       29.121320       21.094506       1
       12330.885       30.445882       21.892822       1
       12354.127       22.899291       21.378392       1
       12377.369       27.438978       21.931704       1
       12400.611       37.620329       22.290798       1
       12423.853       25.554450       21.766918       1
       12447.096       22.278073       22.026773       1
       12470.338       24.730604       20.585663       1
       12493.580       24.482043       21.588658       1
       12516.822       21.389775       19.183721       1
       12540.064       29.402603       17.312007       1
       12563.306       30.033385       21.082112       1
       12586.549       25.253175       17.043181       1
       12609.791       28.467241       20.709612       1
       12633.033       35.332309       17.090969       1
       12656.275       34.793929       20.799198       1
       12679.517       32.795595       17.267817       1
       12702.759       26.057763       20.712278       1
       12726.002       20.130326       16.509063       1
       12749.244       32.625633       20.053611       1
       12772.486       30.443987       16.338625       1
       12795.728       24.822559       19.761268       1
       12818.970       34.425364       16.136643       1
       12842.212       31.418017       19.213925       1
       12865.455       30.144063       15.978025       1
       12888.697       37.770566       19.248971       1
       12911.939       27.418882       15.132727       1
       12935.181       20.137928       18.384343       1
       12958.423       39.962019       15.782520       1
       12981.665       21.550114       18.538840       1
       13004.908       35.215039       15.456908       1
       13028.150       23.367862       18.172711       1
       13051.392       29.393171       15.167316       1
       13074.634       33.938637       17.599403       1
       13097.876       25.027911       15.066711       1
       13121.118       39.174308       16.845940       1
       13144.361       28.904584       14.867565       1
       13167.603       29.652803       15.835192       1
       13190.845       38.044252       14.527011       1
       13214.087       27.734232       15.056506       1
       13237.329       32.132582       14.283829       1
       13260.571       24.602350       14.690389       1
       13283.814       31.628917       14.191699       1
       13307.056       30.512279       14.363921       1
       13330.298       25.004160       13.962500       1
       13353.540       24.903697       14.057766       1
       13376.782       25.632112       13.885809       1
       13400.024       23.689032       13.949858       1
       13423.266       25.864444       13.767901       1
       13446.509       27.080105       13.221192       1
       13469.751       29.627851       13.666244       1
       13492.993       31.027520       13.697721       1
       13516.235       30.704942       13.523273       1
       13539.477       28.642671       13.622491       1
       13562.719       26.931353       13.538278       1
       13585.962       20.811191       13.409993       1
       13609.204       28.665498       13.820736       1
       13632.446       24.867546       13.605865       1
       13655.688       29.707026       13.542130       1
       13678.930       33.463019       13.557528       1
       13702.172       28.296487       13.524061       1
       13725.415       23.770214       13.465917       1
       13748.657       28.897595       13.550957       1
       13771.899       32.644666       13.527345       1
       13795.141       28.516642       12.891185       1
       13818.383       32.186544       13.575559       1
       13841.625       19.364910       12.601052       1
       13864.868       24.813812       13.577594       1
       13888.110       26.878436       13.468519       1
       13911.352       30.271879       13.460006       1
       13934.594       22.592305       13.309022       1
       13957.836       36.032402       13.419391       1
       13981.078       24.785664       13.274457       1
       14004.321       29.280930       13.203820       1
       14027.563       25.722383       13.169239       1
       14050.805       27.401052       13.212341       1
       14074.047       34.068945       13.129936       1
       14097.289       23.780225       12.911152       1
       14120.531       33.773665       13.043262       1
       14143.774       35.706077       13.001817       1
       14167.016       22.884778       12.842240       1
       14190.258       17.363047       12.876059       1
       14213.500       23.899075       12.833662       1
       14236.742       29.432009       12.793117       1
       14259.984       34.579841       12.826805       1
       14283.227       31.532264       12.740892       1
       14306.469       30.502172       12.707107       1
       14329.711       26.600165       12.583694       1
       14352.953       30.065385       12.646648       1
       14376.195       21.663852       12.493004       1
       14399.437       28.900506       12.542048       1
       14422.679       28.948882       12.555995       1
       14445.922       27.565462       12.569816       1
       14469.164       25.044223       12.511749       1
       14492.406       35.677687       12.617521       1
       14515.648       21.840384       11.690710       1
       14538.890       29.764381       12.691643       1
       14562.132       25.353795       12.472860       1
       14585.375       32.120202       12.624757       1
       14608.617       35.190160       12.608134       1
       14631.859       28.715926       12.567774       1
       14655.101       32.549772       12.558293       1
       14678.343       30.727165       12.618237       1
       14701.585       27.309111       12.557106       1
       14724.828       32.552253       12.651553       1
       14748.070       32.397629       12.618560       1
       14771.312       34.455921       12.661333       1
       14794.554       35.005752       12.771721       1
       14817.796       30.750941       12.640702       1
       14841.038       33.764324       12.616474       1
       14864.281       32.744724       11.945257       1
       14887.523       34.768997       12.590641       1
       14910.765       37.328340       12.519623       1
       14934.007       30.000243       12.460182       1
       14957.249       23.589565       11.685829       1
       14980.491       26.263161       12.265656       1
       15003.734       29.123147       11.697213       1
       15026.976       30.692613       12.280337       1
       15050.218       37.373944       12.359968       1
       15073.460       34.736734       12.687027       1
       15096.702       30.282560       12.315077       1
       15119.944       32.818726       12.049992       1
       15143.187       30.358214       12.419096       1
       15166.429       33.485500       11.992950       1
       15189.671       34.126255       12.255413       1
       15212.913       28.606028       12.001753       1
       15236.155       23.693070       11.434406       1
       15259.397       40.478184       2856443.4       1
       15282.640       31.417079       12.079513       1
       15305.882       25.561857       11.825450       1
       15329.124       34.293703       12.119284       1
       15352.366       24.269758       11.824617       1
       15375.608       26.192867       12.019189       1
       15398.850       19.767856       11.046475       1
       15422.093       30.914461       12.115524       1
       15445.335       30.444584       11.975794       1
       15468.577       34.636499       12.196637       1
       15491.819       33.616800       12.180955       1
       15515.061       31.330109       12.192278       1
       15538.303       34.256229       12.054918       1
       15561.545       26.140339       12.092714       1
       15584.788       31.227683       12.065651       1
       15608.030       33.879547       12.226236       1
       15631.272       34.916119       12.081103       1
       15654.514       31.034161       12.171019       1
       15677.756       31.526783       12.004798       1
       15700.998       34.966849       12.187381       1
       15724.241       36.550918       12.114975       1
       15747.483       29.284302       12.320337       1
       15770.725       28.968557       11.342571       1
       15793.967       36.112846       2834940.7       1
       15817.209       31.430627       11.859582       1
       15840.451       26.393460       11.987033       1
       15863.694       31.630320       11.924130       1
       15886.936       32.328037       12.041020       1
       15910.178       33.529754       11.946263       1
       15933.420       32.210020       12.070963       1
       15956.662       30.429988       12.078964       1
       15979.904       29.795981       12.043206       1
       16003.147       34.098953       12.001567       1
       16026.389       30.147986       12.114236       1
       16049.631       35.106263       12.023189       1
       16072.873       28.585492       12.057304       1
       16096.115       26.500226       12.179678       1
       16119.357       28.525557       12.055438       1
       16142.600       30.710635       11.990860       1
       16165.842       35.950798       12.289808       1
       16189.084       39.650967       12.345703       1
       16212.326       35.663753       12.356280       1
       16235.568       27.254736       12.154592       1
       16258.810       27.282376       12.407543       1
       16282.053       39.731028       12.286787       1
       16305.295       37.047731       12.587297       1
       16328.537       29.646590       12.297996       1
       16351.779       38.264454       12.609595       1
       16375.021       23.569105       12.404122       1
       16398.263       28.449762       12.524917       1
       16421.506       32.113054       12.465479       1
       16444.748       34.451192       12.635152       1
       16467.990       27.832684       12.505346       1
       16491.232       30.058879       12.944607       1
       16514.474       33.817409       12.995332       1
       16537.716       23.023595       13.191233       1
       16560.958       24.993061       13.475255       1
       16584.201       15.962459       14.124689       1
       16607.443       20.650802       14.954888       1
       16630.685       24.954641       15.956299       1
       16653.927       34.290856       17.337711       1
       16677.169       36.104165       18.964694       1
       16700.411       34.440245       20.663128       1
       16723.654       28.075786       21.884786       1
       16746.896       44.932877       24.319604       1
       16770.138       29.789734       29.677294       0
       16793.380       61.175907       34.091030       0
       16816.622       42.709786       38.723175       0
       16839.864       52.192292       43.518901       0
       16863.107       14.184858       44.287886       0
       16886.349       52.593977       50.958232       0
       16909.591       59.223424       62.727917       0
       16932.833       48.890553       68.762235       0
       16956.075       63.783740       74.134408       0
       16979.317       60.716889       85.895442       0
       17002.560       71.597699       97.543825       0
       17025.802      -27.116709       90.931434       0
       17049.044       39.767291       121.70731       0
       17072.286      -10.280456       131.63861       0
       17095.528       100.15604       149.79094       0
       17118.770      -22.801201       153.71521       0
       17142.013       127.96484       192.72023       0
       17165.255       136.89506       218.66835       0
       17188.497       150.24618       252.85845       0
       17211.739       210.54858       277.44634       0
       17234.981       357.65407       335.03939       0
       17258.223       381.02495       373.95029       0
       17281.466       55.811641       395.07323       0
       17304.708       248.71154       467.21218       0
       17327.950       419.50368       517.22932       0
       17351.192       212.36735       556.51679       0
       17374.434       361.20103       635.11966       0
       17397.676       553.82255       655.38170       0
       17420.919       492.30474       770.23429       0
