#WAVELENGTH FLUX ERROR MASK
       7512.0036      -14962.413       12664.593       0
       7524.2047      -3519.7092       13282.923       0
       7536.4057      -3994.0472       8937.7477       0
       7548.6067      -3105.3840       9089.8092       0
       7560.8078      -424.02352       5682.4318       0
       7573.0088      -2438.6460       6113.3933       0
       7585.2098      -2710.4951       3643.9514       0
       7597.4109       1280.2345       3731.7549       0
       7609.6119      -584.74087       2563.2772       0
       7621.8129      -1382.0955       2659.1039       0
       7634.0140      -853.17671       1827.8929       0
       7646.2150      -648.01687       2134.6092       0
       7658.4161      -576.00421       1357.0925       0
       7670.6171      -816.77874       1431.0871       0
       7682.8181      -856.91001       967.72065       0
       7695.0192      -213.62348       1000.7090       0
       7707.2202       123.50927       671.08519       0
       7719.4212      -279.80940       777.68763       0
       7731.6223      -346.49105       573.91466       0
       7743.8233      -94.821780       581.91056       0
       7756.0243      -200.52195       423.15187       0
       7768.2254      -249.85843       491.53242       0
       7780.4264      -99.640965       361.14871       0
       7792.6275      -119.08252       415.10954       0
       7804.8285       11.407122       308.42264       0
       7817.0295      -69.441319       354.25056       0
       7829.2306       7.8872605       242.36234       0
       7841.4316      -133.98973       272.76070       0
       7853.6326      -30.898940       194.95883       0
       7865.8337      -90.745486       250.46685       0
       7878.0347       14.276993       161.96018       0
       7890.2357      -69.887093       189.50634       0
       7902.4368      -61.218482       141.15359       0
       7914.6378      -140.75651       172.74232       0
       7926.8388      -114.60584       126.35898       0
       7939.0399      -8.1760506       166.15998       0
       7951.2409      -76.832094       122.58010       0
       7963.4420      -57.972885       137.40251       0
       7975.6430      -19.961590       105.69016       0
       7987.8440      -66.150072       136.73352       0
       8000.0451      -38.700426       97.813984       0
       8012.2461       5.0077165       119.01212       0
       8024.4471      -18.179917       94.479826       0
       8036.6482      -70.735024       112.35488       0
       8048.8492      -9.4767646       89.167169       0
       8061.0502       35.834010       108.90047       0
       8073.2513      -53.445111       84.520799       0
       8085.4523      -8.7936495       105.58451       0
       8097.6534      -32.762356       83.804407       0
       8109.8544       8.7135202       101.70218       0
       8122.0554      -81.353188       78.684171       0
       8134.2565       41.762138       98.567081       0
       8146.4575      -18.627605       78.540427       0
       8158.6585       31.529402       94.665129       1
       8170.8596      -34.359708       74.731646       1
       8183.0606       30.396202       91.782430       1
       8195.2616      -5.6025697       70.918234       1
       8207.4627      -28.758357       82.724346       1
       8219.6637      -18.486662       70.438029       1
       8231.8647      -41.352788       84.085053       1
       8244.0658       3.8495345       65.232258       1
       8256.2668       20.683757       79.785232       1
       8268.4679       17.540425       61.177028       1
       8280.6689       16.111914       75.905443       1
       8292.8699      -28.584138       60.657054       1
       8305.0710      -5.3312258       72.566064       1
       8317.2720       3.2926463       56.616737       1
       8329.4730       1.8215001       69.170038       1
       8341.6741      -30.376456       54.438310       1
       8353.8751       40.816627       67.566785       1
       8366.0761      -26.789242       53.369124       1
       8378.2772       11.471400       68.158612       1
       8390.4782      -12.825327       51.748002       1
       8402.6793       28.094048       63.986182       1
       8414.8803       34.635914       50.862620       1
       8427.0813      -2.1699934       63.893895       1
       8439.2824       6.8054772       48.956699       1
       8451.4834     -0.82961761       59.774117       1
       8463.6844      0.73962641       47.230471       1
       8475.8855      -40.161673       61.566150       1
       8488.0865       7.2759479       47.540805       1
       8500.2875       19.782991       59.740198       1
       8512.4886       8.0492231       45.269263       1
       8524.6896      -1.9261189       55.578412       1
       8536.8906      -11.960971       44.098407       1
       8549.0917      -23.668246       54.652667       1
       8561.2927      -4.2953283       43.777915       1
       8573.4938       29.051386       54.505195       1
       8585.6948       6.0818884       45.060512       1
       8597.8958       1.4780786       54.375767       1
       8610.0969      -17.486691       43.174037       1
       8622.2979       5.6955125       53.469543       1
       8634.4989       3.6156707       42.969557       1
       8646.7000       14.048260       53.222657       1
       8658.9010       7.9804419       43.561107       1
       8671.1020       11.957149       52.125060       1
       8683.3031       12.655271       41.342755       1
       8695.5041       14.249127       50.368014       1
       8707.7052      -15.795181       39.605653       1
       8719.9062       6.7296897       61.943730       1
       8732.1072       18.597256       38.398992       1
       8744.3083       9.5649286       46.713380       1
       8756.5093       31.298473       37.180210       1
       8768.7103       11.393922       45.511988       1
       8780.9114       18.394236       37.162447       1
       8793.1124      -20.888662       66.602618       1
       8805.3134       28.860173       36.732838       1
       8817.5145       22.805605       47.450542       1
       8829.7155       5.0896675       35.612106       1
       8841.9165       35.876376       46.612783       1
       8854.1176      -13.703715       34.803731       1
       8866.3186       8.7651386       48.347661       1
       8878.5197       10.553815       34.444703       1
       8890.7207      -3.9140148       43.622953       1
       8902.9217       9.3643808       34.663675       1
       8915.1228       2.6756471       42.897510       1
       8927.3238       8.9815343       33.282165       1
       8939.5248      -15.796264       44.345004       1
       8951.7259      -6.1427805       32.526651       1
       8963.9269       14.506966       43.491599       1
       8976.1279       5.6025587       31.922144       1
       8988.3290       11.988113       40.724646       1
       9000.5300      -2.5578496       32.444280       1
       9012.7311       2.4989904       40.142261       1
       9024.9321     -0.19230403       31.066489       1
       9037.1331      -1.3797912       40.062703       1
       9049.3342       11.543836       31.225268       1
       9061.5352       25.205960       39.947973       1
       9073.7362       7.7122216       30.763565       1
       9085.9373      -8.1371530       39.176248       1
       9098.1383       3.1965894       30.245897       1
       9110.3393       4.2476961       38.511830       1
       9122.5404       3.5384494       30.558961       1
       9134.7414       8.9249544       37.600574       1
       9146.9424       4.7740919       29.058717       1
       9159.1435      0.61086953       36.940566       1
       9171.3445       14.874292       28.590370       1
       9183.5456       8.7263125       36.282550       1
       9195.7466       7.8416503       28.057177       1
       9207.9476       16.522446       35.530533       1
       9220.1487       12.573719       27.515231       1
       9232.3497       24.125431       35.376802       1
       9244.5507       8.9201555       27.189803       1
       9256.7518       31.019212       35.290896       1
       9268.9528       14.359391       26.791708       1
       9281.1538       16.639098       34.919472       1
       9293.3549       8.8908363       26.498169       1
       9305.5559      0.98016817       34.140570       1
       9317.7570      -2.0739942       27.876563       1
       9329.9580       6.7113724       33.888668       1
       9342.1590       1.9335303       27.163708       1
       9354.3601       14.030903       33.989173       1
       9366.5611       18.304540       25.885019       1
       9378.7621       27.384293       34.843226       1
       9390.9632       4.3884247       25.420212       1
       9403.1642       14.061927       34.313643       1
       9415.3652       16.405523       25.335848       1
       9427.5663       5.0244089       33.817334       1
       9439.7673       15.894573       25.028833       1
       9451.9683       15.697138       32.374855       1
       9464.1694       18.057806       24.609680       1
       9476.3704       8.7802510       31.992950       1
       9488.5715       2.5036986       24.375660       1
       9500.7725       16.935737       35.257573       1
       9512.9735       9.7698420       23.962930       1
       9525.1746       10.311845       31.188813       1
       9537.3756       4.3092419       23.765207       1
       9549.5766      -5.6037867       30.650252       1
       9561.7777       14.573948       23.559274       1
       9573.9787       2.8566557       33.582221       1
       9586.1797       10.394623       23.042040       1
       9598.3808       7.5841398       29.340787       1
       9610.5818       2.2944633       22.619952       1
       9622.7829     -0.58895018       33.205778       1
       9634.9839       2.8867790       22.316630       1
       9647.1849       23.169174       28.314108       1
       9659.3860       27.622758       22.249043       1
       9671.5870       19.417476       28.079681       1
       9683.7880       10.751130       22.410943       1
       9695.9891       13.292364       28.951103       1
       9708.1901       17.032289       23.170006       1
       9720.3911       18.883284       27.271413       1
       9732.5922       9.1388124       21.430255       1
       9744.7932       6.5340336       26.788669       1
       9756.9942       13.966461       21.563825       1
       9769.1953       22.387543       26.593482       1
       9781.3963       8.6516978       21.323141       1
       9793.5974       20.607972       27.262777       1
       9805.7984       14.672617       20.930388       1
       9817.9994       9.0287187       31.512852       1
       9830.2005       16.644682       20.724841       1
       9842.4015       40.043223       26.355254       1
       9854.6025       13.547711       20.654369       1
       9866.8036       25.669064       26.084284       1
       9879.0046       18.273973       21.445872       1
       9891.2056       2.3491541       29.737380       1
       9903.4067       18.416038       21.976236       1
       9915.6077       3.4333659       25.540530       1
       9927.8088       11.061040       20.395048       1
       9940.0098       16.487898       25.771088       1
       9952.2108       19.781100       20.208516       1
       9964.4119       15.270507       25.299084       1
       9976.6129       16.859714       22.681185       1
       9988.8139       14.451672       25.488726       1
       10001.015       22.619786       20.094304       1
       10013.216       1.1981247       28.614938       1
       10025.417       21.008428       20.211585       1
       10037.618       15.388158       26.431341       1
       10049.819       15.253205       19.453279       1
       10062.020       16.976799       24.813428       1
       10074.221       16.028175       19.471840       1
       10086.422       24.892534       24.512703       1
       10098.623       25.412552       20.334756       1
       10110.824       23.577610       24.579054       1
       10123.025       15.212655       19.339778       1
       10135.226       17.096965       24.103967       1
       10147.427       22.516388       19.423978       1
       10159.628       16.550341       23.815208       1
       10171.829       22.990554       19.225158       1
       10184.031       22.361343       23.904545       1
       10196.232       31.454754       19.555917       1
       10208.433       17.802546       23.688336       1
       10220.634       17.906882       18.839821       1
       10232.835       23.805891       23.528470       1
       10245.036       24.388561       18.623619       1
       10257.237       40.840557       23.265580       1
       10269.438       23.901644       18.451264       1
       10281.639       31.541089       23.078662       1
       10293.840       13.994577       18.827224       1
       10306.041       15.988903       22.695367       1
       10318.242       19.263706       18.165773       1
       10330.443       16.260813       22.604022       1
       10342.644       24.808619       18.069892       1
       10354.845       34.141736       22.597742       1
       10367.046       23.299529       18.143215       1
       10379.247       8.3131560       22.599581       1
       10391.448       27.668937       18.107125       1
       10403.649       27.290167       22.464390       1
       10415.850       12.763881       17.937076       1
       10428.051       23.096420       22.298730       1
       10440.252       29.646193       17.959737       1
       10452.453       14.123559       22.249825       1
       10464.654       31.175517       17.920461       1
       10476.855       22.573113       22.246562       1
       10489.056       30.073717       18.328677       1
       10501.257       27.080272       22.358324       1
       10513.458       28.569744       17.959828       1
       10525.660       7.2693228       22.427092       1
       10537.861       36.484894       17.999471       1
       10550.062       32.869997       25.375437       1
       10562.263       28.591786       17.770791       1
       10574.464       27.155053       22.257065       1
       10586.665       15.384470       17.715927       1
       10598.866       26.994578       22.236615       1
       10611.067       32.484072       18.211540       1
       10623.268       25.084298       22.688677       1
       10635.469       18.781667       18.106803       1
       10647.670       28.343429       22.175904       1
       10659.871       21.288103       17.600095       1
       10672.072       28.619994       22.021278       1
       10684.273       25.172831       17.243295       1
       10696.474       19.549863       21.570545       1
       10708.675       22.803973       17.188235       1
       10720.876       22.968056       21.245573       1
       10733.077       36.533384       18.127197       1
       10745.278       24.725670       21.326576       1
       10757.479       22.089152       17.027710       1
       10769.680       18.138041       21.456348       1
       10781.881       34.240109       17.636726       1
       10794.082       22.595701       21.372807       1
       10806.283       25.056120       17.547246       1
       10818.484       15.227631       21.576964       1
       10830.685       29.284699       17.071203       1
       10842.886       35.351306       21.668429       1
       10855.087       34.823033       16.994048       1
       10867.289       26.741258       21.493665       1
       10879.490       32.890992       16.900703       1
       10891.691       24.863947       21.231334       1
       10903.892       25.031671       16.829191       1
       10916.093       24.463475       21.290446       1
       10928.294       29.706608       17.178447       1
       10940.495       27.580364       21.056192       1
       10952.696       31.073530       16.964943       1
       10964.897       29.215129       20.926030       1
       10977.098       31.319560       17.264837       1
       10989.299       38.330873       20.992462       1
       11001.500       25.597367       18.119910       1
       11013.701       29.040179       20.891514       1
       11025.902       35.360417       17.181225       1
       11038.103       29.517391       20.868773       1
       11050.304       30.942894       17.099294       1
       11062.505       17.187001       21.431606       1
       11074.706       24.171983       17.013864       1
       11086.907       34.299307       21.582409       1
       11099.108       21.251693       16.691791       1
       11111.309       38.147964       21.284357       1
       11123.510       34.246637       16.736935       1
       11135.711       29.264598       19.989145       1
       11147.912       28.391471       16.767428       1
       11160.113       23.590055       21.288684       1
       11172.314       27.418590       16.768726       1
       11184.515       30.600960       24.050196       1
       11196.716       23.659806       16.721462       1
       11208.918       28.051980       21.043595       0
       11221.119       30.607030       17.052140       0
       11233.320       11.869170       21.213230       0
       11245.521       24.156764       16.834335       0
       11257.722       14.785429       21.234786       0
       11269.923       15.010553       16.854888       0
       11282.124       31.137953       20.902462       0
       11294.325       26.384698       16.742956       0
       11306.526       19.215370       22.766785       0
       11318.727       25.851224       17.394464       0
       11330.928       29.824770       22.051964       0
       11343.129       30.506381       18.030247       0
       11355.330       33.585357       25.863815       0
       11367.531       17.796467       20.512323       0
       11379.732       38.875666       27.738096       0
       11391.933       40.311191       24.299274       0
       11404.134       19.811021       36.459298       0
       11416.335       38.136986       35.567746       0
       11428.536       47.794605       46.869837       0
       11440.737       15.575466       41.756827       0
       11452.938       53.387996       55.857713       0
       11465.139       42.554122       51.282043       0
       11477.340       61.987801       70.192937       0
       11489.541       60.190481       61.740624       0
       11501.742       33.711167       86.098668       0
       11513.943       56.933114       76.419532       0
       11526.144       78.662093       110.23797       0
       11538.346       41.697548       101.07056       0
       11550.547       96.684654       152.73871       0
       11562.748       87.758772       146.72219       0
       11574.949       21.167969       229.28881       0
       11587.150       65.118427       262.83873       0
       11599.351       75.924058       353.96149       0
       11611.552       207.10947       346.16014       0
       11623.753       278.93891       530.78796       0
       11635.954       122.73519       507.96506       0
       11648.155       507.51375       784.07907       0
       11660.356       438.33073       792.17364       0
       11672.557       263.57170       1304.1327       0
       11684.758       231.70164       1378.2329       0
       11696.959       1538.4012       2220.4340       0
       11709.160       1959.0231       2393.7510       0
       11721.361      -167.90435       3647.3814       0
       11733.562       1052.4564       3226.4587       0
       11745.763      -174.85861       4214.7250       0
       11757.964       1403.1689       3311.9285       0
       11770.165       1095.2372       4073.9647       0
       11782.366       157.62170       3144.1515       0
       11794.567       2800.1578       4056.1659       0
       11806.768       673.21619       3406.7938       0
       11818.969       509.99255       4964.8528       0
       11831.170      -111.41127       4405.1083       0
       11843.371       1109.2458       6541.0548       0
       11855.572       2228.0854       6254.0339       0
       11867.773       134.93287       9159.2006       0
       11879.975       2081.9268       8333.9435       0
       11892.176       4244.1660       12082.445       0
