#WAVELENGTH FLUX ERROR MASK
       7527.8419      -3278.2485       11710.260       0
       7540.4822       5751.0631       12093.985       0
       7553.1225       2668.0571       7674.4904       0
       7565.7628       2910.5615       7451.0888       0
       7578.4031       1395.8372       4733.5542       0
       7591.0434      -1431.6035       4700.3777       0
       7603.6837      -923.15212       3138.6254       0
       7616.3240      -662.35398       3281.5486       0
       7628.9643      -516.02280       2578.2486       0
       7641.6046       2301.9327       2426.1293       0
       7654.2449       762.99580       1671.8716       0
       7666.8852      -570.74428       1721.4986       0
       7679.5255      -246.57625       1149.9084       0
       7692.1658       111.36110       1226.3616       0
       7704.8061      -707.57174       793.45541       0
       7717.4463       598.37876       858.66439       0
       7730.0866       47.693179       604.00771       0
       7742.7269      -151.81327   2.2499510e+08       0
       7755.3672       34.615395       496.72637       0
       7768.0075       15.197094       566.50934       0
       7780.6478      -125.57887       418.96501       0
       7793.2881       79.381854       436.12945       0
       7805.9284       92.030002       346.65563       0
       7818.5687      -54.823346       383.29065       0
       7831.2090      -42.934655       289.29550       0
       7843.8493      -1.7588816       307.66512       0
       7856.4896      -33.354597       222.59159       0
       7869.1299      -79.262685       250.51756       0
       7881.7702       24.238884       186.09606       0
       7894.4105      -68.813000       231.84298       0
       7907.0507      -47.138090       160.49048       0
       7919.6910       105.41363       188.56898       0
       7932.3313       22.289811       144.50376       0
       7944.9716      -50.109450       171.32685       0
       7957.6119       4.0295293       131.26699       0
       7970.2522       37.038838       155.76872       0
       7982.8925      -6.1239390       120.01054       0
       7995.5328      -160.52957       160.07479       0
       8008.1731      -16.057237       111.86085       0
       8020.8134       73.415774       152.46562       0
       8033.4537       55.864225       106.37967       0
       8046.0940      -83.926357       143.05261       0
       8058.7343      -92.177209       100.23846       0
       8071.3746       14.994461       139.52277       0
       8084.0149      -24.548687       97.243855       0
       8096.6551      -52.095206       133.51475       0
       8109.2954      -16.356439       93.800835       0
       8121.9357      -123.66060       113.90634       0
       8134.5760      -51.384250       90.331167       0
       8147.2163       56.262730       124.96537       0
       8159.8566       9.7391510       93.678162       1
       8172.4969      -44.291751       119.56049       1
       8185.1372      -21.503120       84.066318       1
       8197.7775      -15.661080       114.94063       1
       8210.4178      -13.553030       80.622923       1
       8223.0581       195.46513       113.90398       1
       8235.6984      -32.003824       76.687403       1
       8248.3387      -6.4248906       104.64380       1
       8260.9790       51.242301       73.303564       1
       8273.6193       85.658661       89.325980       1
       8286.2596       23.027194       69.692305       1
       8298.8998       24.778697       84.707845       1
       8311.5401       49.866318       66.806083       1
       8324.1804       42.386487       80.961895       1
       8336.8207       21.395199       69.008466       1
       8349.4610       10.902208       78.123312       1
       8362.1013      -12.456752       66.458182       1
       8374.7416      -19.795182       75.839693       1
       8387.3819       16.857923       63.632969       1
       8400.0222       56.454963       74.576578       1
       8412.6625      -3.0493790       61.097773       1
       8425.3028      -12.924341       71.630194       1
       8437.9431       68.168760       57.559776       1
       8450.5834      -10.602212       69.451982       1
       8463.2237       7.3119027       55.212844       1
       8475.8640       6.8126351       67.548404       1
       8488.5042       15.516323       53.577870       1
       8501.1445       21.049046       65.730886       1
       8513.7848       3.2306586       52.255044       1
       8526.4251      -35.147017       63.774794       1
       8539.0654       31.554254       52.008154       1
       8551.7057      -4.2756562       63.050874       1
       8564.3460       63.206880       51.040243       1
       8576.9863       4.2138612       62.112539       1
       8589.6266       16.416541       50.189455       1
       8602.2669       19.028294       62.107632       1
       8614.9072       15.058293       49.851104       1
       8627.5475       32.657168       61.655938       1
       8640.1878      -3.8257849       49.308885       1
       8652.8281    -0.057745578       60.637246       1
       8665.4684       4.5218292       48.551000       1
       8678.1087       40.751352       19750163.       1
       8690.7489       41.933367       47.616173       1
       8703.3892       4.8308715       62.312619       1
       8716.0295       64.730213       45.980844       1
       8728.6698      -7.1268364       51.355935       1
       8741.3101       47.455101       45.910398       1
       8753.9504       51.156299       53.977819       1
       8766.5907       19.199129       42.742844       1
       8779.2310       30.093725       56.824168       1
       8791.8713       28.338601       42.209849       1
       8804.5116       49.998060       58.367367       1
       8817.1519       24.362383       41.379310       1
       8829.7922       24.625245       56.917359       1
       8842.4325       53.257117       40.675273       1
       8855.0728       51.752661       55.891728       1
       8867.7131       48.018202       39.752603       1
       8880.3533       4.4460270       48.271540       1
       8892.9936       4.8952068       46.445215       1
       8905.6339       1.4152880       47.586083       1
       8918.2742      -4.7084838       37.904692       1
       8930.9145      -39.206008       18897782.       1
       8943.5548       16.042244       37.572524       1
       8956.1951       1.3600860       45.773948       1
       8968.8354       26.479588       39.518988       1
       8981.4757       13.935685       44.980723       1
       8994.1160       43.951110       36.170373       1
       9006.7563      -17.322898       43.734298       1
       9019.3966       24.593659       35.526243       1
       9032.0369       5.8741844       43.656909       1
       9044.6772       35.137521       35.343304       1
       9057.3175       1.1391071       43.409020       1
       9069.9578       31.388771       35.242420       1
       9082.5980      -14.015215       42.713966       1
       9095.2383       9.2454096       34.412407       1
       9107.8786       55.874214       42.617526       1
       9120.5189       36.219218       33.914304       1
       9133.1592       27.723386       41.475292       1
       9145.7995       28.840009       33.000344       1
       9158.4398       34.265541       40.781766       1
       9171.0801      0.85571501       32.232919       1
       9183.7204       9.1677032       39.590798       1
       9196.3607       35.110442       31.872514       1
       9209.0010       7.5008949       38.594329       1
       9221.6413       43.179440       30.970992       1
       9234.2816       23.447605       35.283875       1
       9246.9219       27.498242       35.367964       1
       9259.5622       27.758212       37.831723       1
       9272.2024       23.450028       30.331139       1
       9284.8427       37.225151       37.613495       1
       9297.4830       33.002416       29.998932       1
       9310.1233       55.041479       37.336259       1
       9322.7636       31.384194       29.756795       1
       9335.4039       4.1300430       36.464039       1
       9348.0442       6.9641968       33.629560       1
       9360.6845       21.727123       36.141377       1
       9373.3248       28.449736       29.111598       1
       9385.9651       36.425105       36.059515       1
       9398.6054       32.551837       28.854972       1
       9411.2457       24.591691       35.541647       1
       9423.8860       34.194495       28.571377       1
       9436.5263       19.596742       34.994220       1
       9449.1666       26.566888       27.981105       1
       9461.8069       18.248204       34.446818       1
       9474.4471       27.385579       27.628768       1
       9487.0874       33.693631       34.178854       1
       9499.7277       14.322329       27.266586       1
       9512.3680       36.928687       33.916734       1
       9525.0083       24.560208       27.134658       1
       9537.6486       6.1761013       33.166924       1
       9550.2889       34.492223       30.906797       1
       9562.9292       25.822924       33.143767       1
       9575.5695       23.491220       26.519400       1
       9588.2098       17.049324       32.721515       1
       9600.8501       28.071972       26.319188       1
       9613.4904       32.103184       32.447242       1
       9626.1307       43.470701       26.107828       1
       9638.7710       47.434945       32.238563       1
       9651.4113       8.7661757       25.623556       1
       9664.0515       10.924105       31.584180       1
       9676.6918       37.904903       25.601527       1
       9689.3321       28.677023       31.675152       1
       9701.9724       22.269457       25.305480       1
       9714.6127      0.32216499       31.077332       1
       9727.2530       43.225408       25.284491       1
       9739.8933       19.408753       31.043582       1
       9752.5336       11.557354       24.786263       1
       9765.1739       28.486687       30.844813       1
       9777.8142       31.575536       24.630319       1
       9790.4545       32.068250       30.520517       1
       9803.0948       46.608579       24.659359       1
       9815.7351       18.686364       30.224484       1
       9828.3754       37.113461       24.382284       1
       9841.0157       12.912607       30.008054       1
       9853.6560       39.006474       25.388844       1
       9866.2962       30.530115       29.978919       1
       9878.9365       37.145762       25.244084       1
       9891.5768       19.527603       29.744282       1
       9904.2171       34.954820       24.054189       1
       9916.8574       20.356580       29.657486       1
       9929.4977       40.940116       23.953921       1
       9942.1380       18.682052       29.556321       1
       9954.7783       23.677416       23.757716       1
       9967.4186       28.188000       29.373550       1
       9980.0589       28.350977       23.532707       1
       9992.6992       39.021737       29.195381       1
       10005.339       48.986729       23.433358       1
       10017.980       41.730254       28.760183       1
       10030.620       27.872048       22.949447       1
       10043.260       38.817221       26.108032       1
       10055.901       43.488828       22.823540       1
       10068.541       22.406291       27.983004       1
       10081.181       39.284792       23.800414       1
       10093.822       40.196554       28.083433       1
       10106.462       31.031673       23.526459       1
       10119.102       22.022418       27.916149       1
       10131.742       44.724111       22.731214       1
       10144.383       47.982572       28.050824       1
       10157.023       51.553367       22.607025       1
       10169.663       30.168410       27.764163       1
       10182.304       45.394666       22.409658       1
       10194.944       36.704312       27.629633       1
       10207.584       52.350663       22.310737       1
       10220.224       58.846414       27.599373       1
       10232.865       50.714573       22.186652       1
       10245.505       27.796579       27.047301       1
       10258.145       77.039565       25.349884       1
       10270.786       44.370409       26.915207       1
       10283.426       33.276538       24.778206       1
       10296.066       32.515236       26.567534       1
       10308.707       46.162040       21.417293       1
       10321.347       55.186226       26.408977       1
       10333.987       49.567227       21.192558       1
       10346.627       50.956417       26.268495       1
       10359.268       62.533407       21.192768       1
       10371.908       45.256286       26.069147       1
       10384.548       48.410090       21.018155       1
       10397.189       40.098967       25.923276       1
       10409.829       60.856530       25.590185       1
       10422.469       52.965133       25.994732       1
       10435.109       40.201045       20.810425       1
       10447.750       51.992245       25.965193       1
       10460.390       37.444414       20.686350       1
       10473.030       59.271660       25.746572       1
       10485.671       41.799714       20.686906       1
       10498.311       41.317822       25.367513       1
       10510.951       51.948555       20.694769       1
       10523.592       48.790133       25.578118       1
       10536.232       34.477893       20.613002       1
       10548.872       8.5091830       21.878894       1
       10561.512       63.082957       20.807982       1
       10574.153       57.609100       25.745070       1
       10586.793       60.919849       20.800119       1
       10599.433       49.886505       25.664462       1
       10612.074       39.584893       20.603922       1
       10624.714       42.984670       25.370916       1
       10637.354       46.695047       20.522618       1
       10649.994       27.170285       25.107207       1
       10662.635       56.436041       20.415130       1
       10675.275       30.831208       24.806844       1
       10687.915       63.537916       20.138483       1
       10700.556       42.440797       24.651263       1
       10713.196       42.838304       19.910408       1
       10725.836       38.354461       24.469253       1
       10738.476       51.620648       21.049942       1
       10751.117       46.270927       24.570006       1
       10763.757       59.177262       19.916151       1
       10776.397       66.217242       24.701593       1
       10789.038       39.129312       19.670497       1
       10801.678       55.860847       24.544809       1
       10814.318       68.689824       19.823310       1
       10826.959       66.856101       24.614159       1
       10839.599       54.988177       19.766593       1
       10852.239       64.341677       24.518900       1
       10864.879       61.161351       19.672340       1
       10877.520       61.524774       24.326943       1
       10890.160       78.565369       19.698733       1
       10902.800       51.419644       22.269293       1
       10915.441       82.584837       19.649349       1
       10928.081       75.597027       24.161745       1
       10940.721       68.453754       19.394000       1
       10953.361       83.352239       24.094063       1
       10966.002       63.415556       19.269951       1
       10978.642       37.212616       23.712994       1
       10991.282       58.559390       19.281503       1
       11003.923       66.490724       23.985009       1
       11016.563       48.513762       19.196810       1
       11029.203       49.135326       22.100006       1
       11041.844       56.140141       19.256402       1
       11054.484       58.119085       23.920379       1
       11067.124       53.921565       19.259918       1
       11079.764       27.355854       21.710115       1
       11092.405       50.868188       20.836194       1
       11105.045       53.672227       23.818479       1
       11117.685       52.936742       21.024421       1
       11130.326       50.106583       23.684142       1
       11142.966       55.258765       20.155917       1
       11155.606       66.055266       23.762130       1
       11168.246       52.728155       19.143886       1
       11180.887       53.650383       23.725516       1
       11193.527       54.576153       20.122750       1
       11206.167       48.049439       23.810306       0
       11218.808       48.372621       19.134396       0
       11231.448       57.134344       23.810307       0
       11244.088       62.460743       20.038618       0
       11256.729       56.893536       23.813642       0
       11269.369       71.969351       19.212789       0
       11282.009       47.058431       23.609343       0
       11294.649       57.033961       19.102222       0
       11307.290       53.541185       23.645415       0
       11319.930       65.409926       19.177678       0
       11332.570       59.898059       23.620226       0
       11345.211       49.839643       18.991099       0
       11357.851       53.561524       23.494862       0
       11370.491       57.608280       19.073862       0
       11383.131       54.855399       23.759646       0
       11395.772       36.005039       19.256383       0
       11408.412       26.502492       24.274721       0
       11421.052       59.509875       20.579658       0
       11433.693       59.110004       26.674375       0
       11446.333       47.251167       22.826447       0
       11458.973       56.366945       30.723423       0
       11471.614       51.712703       27.075951       0
       11484.254       42.581760       37.455869       0
       11496.894       55.790056       34.044558       0
       11509.534       27.079276       47.716618       0
       11522.175       17.459572       43.739829       0
       11534.815       64.584239       61.842372       0
       11547.455       42.558264       56.141706       0
       11560.096       49.324981       77.195919       0
       11572.736       45.096279       68.821564       0
       11585.376       109.93476       95.000111       0
       11598.016       74.481048       85.875717       0
       11610.657       57.380222       120.24661       0
       11623.297       107.19205       113.30148       0
       11635.937      -5.6824478       165.62044       0
       11648.578      -10.040227       161.80795       0
       11661.218       66.301937       248.43617       0
       11673.858      -140.76337       247.15808       0
       11686.499      -222.97384       380.26700       0
       11699.139       75.288802       379.51794       0
       11711.779      -548.13347       563.23409       0
       11724.419       72.534544       558.66395       0
       11737.060      -181.91265       831.52018       0
       11749.700      -493.16678       847.40502       0
       11762.340      -231.43319       1379.1863       0
       11774.981      -324.15456       1441.2904       0
       11787.621      -2159.8622       2303.2765       0
       11800.261       1948.5675       2485.5241       0
       11812.901       187.84861       3538.1546       0
       11825.542      -3443.8194       3535.1286       0
       11838.182      -338.07467       4627.7187       0
       11850.822      -2489.4653       3705.4246       0
       11863.463      -1334.6396       4482.1606       0
       11876.103      -160.71901       3522.2129       0
       11888.743      -2788.1587       4347.1014       0
       11901.384      -33.841023       3720.6005       0
       11914.024      -2663.6941       4626.8413       0
       11926.664       442.29203       4910.6004       0
       11939.304      -3958.9754       6216.7569       0
       11951.945       1448.3086       6941.6484       0
       11964.585      -6178.6465       9607.5337       0
       11977.225      -4643.5094       8899.9615       0
       11989.866      -1591.3004       12638.274       0
       12002.506      -4090.5547       12023.705       0
       12015.146      -8349.5469       17035.120       0
       12027.786      -4371.8213       17101.912       0
       12040.427      -6947.9441       25580.825       0
       12053.067      -7285.3387       24244.991       0
       12065.707      -22356.938       38005.925       0
