#WAVELENGTH FLUX ERROR MASK
       10192.606      -1057.2392       3212.7569       0
       10215.848      -1088.3614       2828.4392       0
       10239.090       882.80302       2470.8816       0
       10262.332      -453.08302       1909.5692       0
       10285.574      -590.59810       1789.4445       0
       10308.817       69.214459       1578.8070       0
       10332.059       1120.6910       1416.1760       0
       10355.301      -556.12826       1260.8505       0
       10378.543      -85.145665       1167.4128       0
       10401.785       588.95930       1065.9687       0
       10425.027       316.58393       961.03404       0
       10448.270      -292.49575       830.65129       0
       10471.512      -356.19210       707.88557       0
       10494.754      -80.463215       599.43809       0
       10517.996      -283.33656       499.87301       0
       10541.238      -294.59870       428.79407       0
       10564.480       18.055363       374.91492       0
       10587.723      -21.174512       331.69925       0
       10610.965      -47.649511       295.68403       0
       10634.207       115.46379       266.64764       0
       10657.449       88.981819       239.90049       0
       10680.691       29.292508       210.05386       0
       10703.933       61.818387       180.26408       0
       10727.176      -67.928777       149.95512       0
       10750.418       66.646720       125.85093       0
       10773.660       80.347414       105.36502       0
       10796.902       24.780725       87.483383       0
       10820.144       20.198580       75.158686       0
       10843.386       36.880686       59.663906       0
       10866.629       23.322621       55.043926       0
       10889.871       17.963915       53.578429       0
       10913.113       37.571678       50.066219       0
       10936.355       66.200057       46.532362       0
       10959.597       53.155037       43.720001       0
       10982.839       22.846458       40.053065       0
       11006.082       55.472398       38.186562       1
       11029.324       39.971645       9866198.7       1
       11052.566       46.568438       33.230156       1
       11075.808       32.396409       30.886642       1
       11099.050       17.974987       29.497611       1
       11122.292       41.313375       28.235964       1
       11145.535       54.465074       27.865957       1
       11168.777       35.492003       27.024423       1
       11192.019       32.018999       26.683730       1
       11215.261       53.361869       26.120570       1
       11238.503       47.731370       26.071256       1
       11261.745       55.887367       25.453793       1
       11284.987       61.228867       25.705838       1
       11308.230       63.698642       25.088129       1
       11331.472       30.205664       22.736452       1
       11354.714       63.560160       24.663910       1
       11377.956       73.292974       24.784185       1
       11401.198       50.268157       24.298194       1
       11424.440       51.718318       24.207148       1
       11447.683       53.778296       23.557291       1
       11470.925       60.171509       24.064733       1
       11494.167       35.069335       6550217.9       1
       11517.409       50.747895       23.706706       1
       11540.651       52.671135       23.243923       1
       11563.893       45.852081       23.501276       1
       11587.136       48.364548       23.007920       1
       11610.378       36.956136       23.167154       1
       11633.620       54.068067       22.710695       1
       11656.862       42.938897       22.843249       1
       11680.104       49.173775       22.104006       1
       11703.346       53.138026       22.316017       1
       11726.589       49.845068       21.548137       1
       11749.831       32.754724       19.878150       1
       11773.073       55.819584       20.988563       1
       11796.315       49.483762       21.383749       1
       11819.557       64.610729       20.801204       1
       11842.799       37.746782       20.822818       1
       11866.042       52.565589       20.346950       1
       11889.284       52.275839       20.625018       1
       11912.526       46.957057       19.945082       1
       11935.768       49.618435       20.328494       1
       11959.010       58.108808       20.047560       1
       11982.252       49.644757       19.988838       1
       12005.495       37.486599       19.245863       1
       12028.737       38.918861       19.652730       1
       12051.979       50.729720       19.129316       1
       12075.221       58.173380       19.588532       1
       12098.463       60.978657       18.962429       1
       12121.705       50.427031       19.295846       1
       12144.948       51.472055       18.709666       1
       12168.190       45.454070       18.978112       1
       12191.432       58.074412       18.488457       1
       12214.674       57.581723       18.880123       1
       12237.916       62.436009       18.307639       1
       12261.158       44.177283       18.497538       1
       12284.400       53.665036       18.857499       1
       12307.643       50.950354       18.381226       1
       12330.885       57.833554       17.880477       1
       12354.127       55.732243       18.165962       1
       12377.369       64.989782       17.791149       1
       12400.611       45.896393       18.030585       1
       12423.853       61.166930       17.578268       1
       12447.096       48.056699       17.937922       1
       12470.338       33.249504       17.327176       1
       12493.580       58.258255       17.883827       1
       12516.822       50.079898       17.141401       1
       12540.064       36.131694       23.003967       1
       12563.306       46.452416       14.427280       1
       12586.549       46.147250       22.943254       1
       12609.791       49.849628       16.047013       1
       12633.033       38.758153       22.620469       1
       12656.275       56.349368       16.130609       1
       12679.517       50.237314       22.420517       1
       12702.759       41.469680       16.132301       1
       12726.002       38.861767       22.188054       1
       12749.244       50.306485       15.543153       1
       12772.486       41.569938       21.617021       1
       12795.728       55.232504       15.373731       1
       12818.970       51.607360       21.198392       1
       12842.212       47.276461       15.315197       1
       12865.455       57.860631       20.901000       1
       12888.697       51.465574       15.093425       1
       12911.939       53.931417       21.055697       1
       12935.181       53.664206       14.971379       1
       12958.423       47.388868       20.583296       1
       12981.665       56.310035       14.873398       1
       13004.908       46.791617       20.239308       1
       13028.150       51.332059       14.593196       1
       13051.392       62.770621       19.574811       1
       13074.634       41.872223       14.326182       1
       13097.876       38.287241       19.524799       1
       13121.118       40.363293       14.430888       1
       13144.361       48.388422       17.322360       1
       13167.603       44.642564       14.100944       1
       13190.845       46.941606       16.254637       1
       13214.087       54.732315       13.938548       1
       13237.329       53.490501       15.251341       1
       13260.571       35.731120       13.702724       1
       13283.814       56.060638       14.654692       1
       13307.056       52.860769       13.757606       1
       13330.298       46.228946       14.306207       1
       13353.540       48.381653       13.636550       1
       13376.782       48.211587       14.037354       1
       13400.024       46.180334       13.544191       1
       13423.266       57.098606       13.962588       1
       13446.509       62.169271       13.561710       1
       13469.751       60.093978       13.856579       1
       13492.993       46.573110       13.271446       1
       13516.235       42.630631       13.500020       1
       13539.477       44.896849       13.188677       1
       13562.719       47.616316       13.525177       1
       13585.962       53.073997       13.237588       1
       13609.204       56.267226       14.040510       1
       13632.446       50.811060       13.214825       1
       13655.688       48.736709       13.508490       1
       13678.930       50.829105       13.243944       1
       13702.172       52.919722       13.535256       1
       13725.415       57.115757       13.275112       1
       13748.657       35.043672       13.359039       1
       13771.899       47.625155       13.188291       1
       13795.141       53.246695       13.523694       1
       13818.383       48.727336       13.137186       1
       13841.625       52.854203       12.298958       1
       13864.868       43.803173       13.116086       1
       13888.110       49.862171       13.463931       1
       13911.352       48.521149       13.067748       1
       13934.594       42.662823       13.278054       1
       13957.836       56.009861       13.096776       1
       13981.078       49.283044       13.279518       1
       14004.321       59.141725       13.001571       1
       14027.563       47.603866       13.116087       1
       14050.805       46.835071       12.727379       1
       14074.047       48.267468       13.027757       1
       14097.289       47.181828       12.643587       1
       14120.531       42.989370       13.096692       1
       14143.774       61.415051       12.745503       1
       14167.016       52.723552       12.894522       1
       14190.258       49.695918       12.562581       1
       14213.500       48.388627       12.834848       1
       14236.742       50.978174       12.508182       1
       14259.984       59.903962       12.784265       1
       14283.227       45.252821       12.568137       1
       14306.469       54.511166       12.665972       1
       14329.711       45.354422       12.221511       1
       14352.953       54.753645       12.624580       1
       14376.195       42.334986       12.392823       1
       14399.437       51.175303       12.970928       1
       14422.679       53.458272       12.232727       1
       14445.922       59.810734       12.656282       1
       14469.164       43.049263       12.351212       1
       14492.406       59.533244       12.606337       1
       14515.648       49.574046       12.183365       1
       14538.890       48.683911       12.547737       1
       14562.132       41.248752       10.883102       1
       14585.375       57.095315       12.605224       1
       14608.617       47.519240       12.200297       1
       14631.859       58.243356       3633734.2       1
       14655.101       57.864715       12.317735       1
       14678.343       55.090076       12.587268       1
       14701.585       45.086330       12.148772       1
       14724.828       48.962352       12.536646       1
       14748.070       51.071733       12.307330       1
       14771.312       54.866483       12.618939       1
       14794.554       50.551149       12.252229       1
       14817.796       51.277856       12.550817       1
       14841.038       61.400358       12.349441       1
       14864.281       49.634199       12.506038       1
       14887.523       46.060548       12.079606       1
       14910.765       51.678518       12.833532       1
       14934.007       60.618341       12.193973       1
       14957.249       66.130919       12.476904       1
       14980.491       53.681356       11.996417       1
       15003.734       46.307365       11.320909       1
       15026.976       54.068516       11.974497       1
       15050.218       58.152760       12.317172       1
       15073.460       47.650211       12.510166       1
       15096.702       54.471890       3534087.2       1
       15119.944       54.949825       12.688291       1
       15143.187       50.166278       11.898712       1
       15166.429       48.304964       12.580408       1
       15189.671       51.429006       12.521508       1
       15212.913       57.069598       12.640118       1
       15236.155       55.436169       12.501235       1
       15259.397       53.285968       12.509220       1
       15282.640       54.229532       12.519810       1
       15305.882       43.580174       11.357790       1
       15329.124       46.164689       11.366506       1
       15352.366       50.042594       12.514770       1
       15375.608       48.440287       12.449630       1
       15398.850       53.358763       12.602704       1
       15422.093       46.963054       12.488281       1
       15445.335       57.614149       12.606637       1
       15468.577       27.731552       10.058395       1
       15491.819       47.828810       12.574483       1
       15515.061       54.992074       12.586266       1
       15538.303       50.989216       12.553097       1
       15561.545       62.497824       12.681984       1
       15584.788       57.275211       12.697157       1
       15608.030       52.531350       11.552964       1
       15631.272       51.346232       12.633828       1
       15654.514       48.118628       12.535639       1
       15677.756       65.060733       12.816222       1
       15700.998       50.485720       12.506509       1
       15724.241       51.450952       12.741252       1
       15747.483       44.055117       12.370953       1
       15770.725       42.100371       11.870735       1
       15793.967       60.910820       12.517203       1
       15817.209       54.555462       12.542004       1
       15840.451       44.909962       11.449869       1
       15863.694       54.185085       12.571488       1
       15886.936       53.001011       12.472818       1
       15910.178       50.940323       12.522569       1
       15933.420       52.921844       12.485240       1
       15956.662       52.499483       12.593729       1
       15979.904       48.382964       12.478758       1
       16003.147       51.100313       12.820580       1
       16026.389       56.205528       12.570520       1
       16049.631       58.712864       12.703020       1
       16072.873       58.241778       12.582810       1
       16096.115       53.854275       12.664030       1
       16119.357       53.899410       12.536183       1
       16142.600       54.353736       12.740334       1
       16165.842       52.420945       12.656964       1
       16189.084       51.846492       12.759490       1
       16212.326       54.647919       13.263408       1
       16235.568       50.445096       12.897645       1
       16258.810       52.665088       12.900776       1
       16282.053       62.434910       13.032490       1
       16305.295       56.123495       12.977745       1
       16328.537       47.311018       12.956874       1
       16351.779       51.118140       12.982755       1
       16375.021       53.911747       12.977178       1
       16398.263       51.464996       12.979427       1
       16421.506       47.515250       13.017269       1
       16444.748       53.746631       13.101985       1
       16467.990       38.389800       12.466481       1
       16491.232       47.423695       13.196153       1
       16514.474       51.732942       13.546005       1
       16537.716       47.321828       13.677212       1
       16560.958       47.351209       14.165313       1
       16584.201       57.514927       14.766151       1
       16607.443       43.095671       16.457712       1
       16630.685       55.048394       16.646533       1
       16653.927       56.657738       18.262952       1
       16677.169       62.795982       19.595124       1
       16700.411       60.920727       21.618098       1
       16723.654       54.874361       23.686541       1
       16746.896       28.047829       24.132067       1
       16770.138       71.295825       30.662512       0
       16793.380       72.788650       35.182730       0
       16816.622       83.198045       40.088481       0
       16839.864       35.982308       45.782809       0
       16863.107       82.769721       51.260114       0
       16886.349       101.11328       57.680647       0
       16909.591       87.652526       63.930865       0
       16932.833       75.954709       72.816290       0
       16956.075       90.784291       79.686943       0
       16979.317       106.89606       90.049380       0
       17002.560       107.71643       99.900197       0
       17025.802       81.698981       111.76653       0
       17049.044       108.56383       123.56269       0
       17072.286       84.720442       139.92316       0
       17095.528       129.40271       152.60270       0
       17118.770       94.428496       172.26398       0
       17142.013       26.852182       194.54057       0
       17165.255       100.31302       226.39639       0
       17188.497       212.32718       254.17715       0
       17211.739       283.48920       301.63003       0
       17234.981       338.64247       340.37019       0
       17258.223       118.77794       390.34279       0
       17281.466       130.49399       427.57318       0
       17304.708       281.23586       481.84521       0
       17327.950       80.577458       522.00561       0
       17351.192       328.36855       579.75986       0
       17374.434      -78.130175       641.33386       0
       17397.676       211.68399       717.17612       0
       17420.919       753.89645       786.51045       0
