#WAVELENGTH FLUX ERROR MASK
       10272.392       499.15260       1917.4054       0
       10295.967      -281.26484       1741.5367       0
       10319.542      -84.496781       1451.4766       0
       10343.118       347.47130       1376.6949       0
       10366.693      -247.97900       1177.4496       0
       10390.269      -1024.1655       1126.7489       0
       10413.844       750.51040       987.61095       0
       10437.419      -4.9779790       914.25773       0
       10460.995      -278.30657       739.64837       0
       10484.570       149.69741       665.85421       0
       10508.146       714.15912       535.33937       0
       10531.721       159.81320       484.06933       0
       10555.296       286.32887       383.93143       0
       10578.872       358.01645       363.73884       0
       10602.447       94.852587       298.85398       0
       10626.023       229.56024       292.70623       0
       10649.598       99.022667       240.16596       0
       10673.173       276.32141       233.87161       0
       10696.749       34.627150       182.22605       0
       10720.324       80.900243       168.11200       0
       10743.899       218.51565       130.16757       0
       10767.475      -13.840152       115.52626       0
       10791.050      -6.4168088       88.321560       0
       10814.626       105.98805       82.729643       0
       10838.201       33.651265       65.721484       0
       10861.776       95.067737       64.123899       0
       10885.352       61.240863       53.426170       0
       10908.927       74.946065       53.547714       0
       10932.503       134.82743       46.685602       0
       10956.078       103.48705       47.039625       0
       10979.653       54.269748       39.810595       0
       11003.229       121.98593       41.003888       1
       11026.804       124.29667       35.277374       1
       11050.379       61.250557       35.225835       1
       11073.955       55.891154       30.165630       1
       11097.530       90.815471       32.061441       1
       11121.106       77.055928       28.054816       1
       11144.681       91.449909       29.860880       1
       11168.256       97.130965       26.944419       1
       11191.832       86.538880       28.714907       1
       11215.407       73.158591       25.877070       1
       11238.983       65.576862       27.781941       1
       11262.558       91.039760       25.594103       1
       11286.133       57.537115       27.122686       1
       11309.709       85.038424       24.941377       1
       11333.284       60.999731       26.625246       1
       11356.860       10.238510       17.238716       1
       11380.435       79.564037       26.238968       1
       11404.010       66.779041       23.950075       1
       11427.586       90.118286       25.962327       1
       11451.161       98.543127       23.850553       1
       11474.736       67.579813       25.520452       1
       11498.312       81.525194       23.588523       1
       11521.887       72.525752       25.745091       1
       11545.463       56.781295       23.413414       1
       11569.038       63.709935       25.650979       1
       11592.613       52.027669       23.415034       1
       11616.189       69.531550       25.223018       1
       11639.764       58.547759       22.513864       1
       11663.340       55.426817       24.719055       1
       11686.915       82.052848       22.215217       1
       11710.490       88.264377       24.310633       1
       11734.066       83.193638       21.608212       1
       11757.641       57.252108       23.519808       1
       11781.216       65.309627       20.931735       1
       11804.792       87.669720       23.293667       1
       11828.367       52.958576       20.380115       1
       11851.943       72.573798       22.698947       1
       11875.518       79.430446       20.407178       1
       11899.093       93.786896       22.583315       1
       11922.669       70.332227       19.974373       1
       11946.244       76.351579       22.167712       1
       11969.820       83.015869       19.889737       1
       11993.395       88.648372       22.044900       1
       12016.970       64.716628       19.259183       1
       12040.546       81.926905       21.641642       1
       12064.121       69.892896       19.182888       1
       12087.696       78.812068       21.349059       1
       12111.272       61.434480       18.887560       1
       12134.847       81.859207       21.138489       1
       12158.423       70.901148       18.788718       1
       12181.998       73.758169       20.869139       1
       12205.573       71.248607       18.596592       1
       12229.149       103.38520       20.920782       1
       12252.724       64.693914       18.267222       1
       12276.300       70.499636       20.364071       1
       12299.875       86.321220       18.329157       1
       12323.450       76.834566       20.058352       1
       12347.026       92.312477       18.261086       1
       12370.601       84.735389       19.943959       1
       12394.177       67.884568       17.821671       1
       12417.752       70.500742       19.772727       1
       12441.327       63.752402       17.612059       1
       12464.903       108.79378       20.160341       1
       12488.478       51.226960       17.569894       1
       12512.053       55.022973       18.940415       1
       12535.629       52.009082       17.377848       1
       12559.204       68.421846       18.989830       1
       12582.780       56.810911       17.397586       1
       12606.355       96.356774       19.122387       1
       12629.930       66.234195       17.378174       1
       12653.506       77.102561       18.851162       1
       12677.081       76.442391       17.368837       1
       12700.657       95.991251       18.993763       1
       12724.232       85.671188       17.303171       1
       12747.807       62.410533       18.231516       1
       12771.383       76.764952       16.954802       1
       12794.958       75.158658       18.136598       1
       12818.533       68.197089       16.619404       1
       12842.109       97.616827       18.230535       1
       12865.684       80.879492       16.660181       1
       12889.260       94.517759       18.117487       1
       12912.835       82.382602       16.624639       1
       12936.410       82.384985       17.899368       1
       12959.986       74.830228       16.311229       1
       12983.561       71.186974       17.492034       1
       13007.137       61.844298       15.921571       1
       13030.712       88.304166       17.471340       1
       13054.287       55.911549       15.737464       1
       13077.863       6.1156353       11.305105       1
       13101.438       68.768156       15.681673       1
       13125.014       80.911254       17.095829       1
       13148.589       66.287444       15.519787       1
       13172.164       56.108894       16.628633       1
       13195.740       59.096241       15.290711       1
       13219.315       91.268509       16.876253       1
       13242.890       66.432144       15.221349       1
       13266.466       76.720528       16.629899       1
       13290.041       82.313151       15.264081       1
       13313.617       96.168034       16.689779       1
       13337.192       88.957906       15.406214       1
       13360.767       100.43809       16.714840       1
       13384.343       79.339468       15.181620       1
       13407.918       94.440098       16.465079       1
       13431.494       108.78561       15.317409       1
       13455.069       94.183850       15.987218       1
       13478.644       106.43274       15.236292       1
       13502.220       75.163471       15.650949       1
       13525.795       67.389985       14.742976       1
       13549.370       71.846803       15.502155       1
       13572.946       66.226148       14.686723       1
       13596.521       59.675966       15.368476       1
       13620.097       65.781711       14.711582       1
       13643.672       80.483300       15.614229       1
       13667.247       59.843192       14.658299       1
       13690.823       59.846366       15.375195       1
       13714.398       59.255206       14.611091       1
       13737.974       75.522596       15.527597       1
       13761.549       57.966415       14.562450       1
       13785.124       76.360518       5525848.4       1
       13808.700       60.724632       14.620469       1
       13832.275       67.567563       15.542892       1
       13855.851       67.666470       14.728473       1
       13879.426       54.107702       15.279451       1
       13903.001       72.262111       14.663808       1
       13926.577       79.335987       15.500450       1
       13950.152       71.550708       14.600584       1
       13973.727       55.401018       15.200793       1
       13997.303       67.010567       14.435075       1
       14020.878       77.161595       15.355681       1
       14044.454       63.704463       14.326908       1
       14068.029       67.067937       14.975745       1
       14091.604       61.895306       14.093724       1
       14115.180       62.388123       14.772213       1
       14138.755       59.892159       14.023885       1
       14162.331       75.773993       14.845187       1
       14185.906       62.832353       13.979455       1
       14209.481       53.570172       14.642566       1
       14233.057       67.408935       5230737.6       1
       14256.632       51.111279       14.480667       1
       14280.207       79.036244       13.934308       1
       14303.783       76.116245       14.515339       1
       14327.358       66.327720       13.646220       1
       14350.934       69.633162       14.474069       1
       14374.509       59.502755       13.612415       1
       14398.084       76.040678       14.443175       1
       14421.660       68.220039       13.597342       1
       14445.235       68.362255       14.772928       1
       14468.811       80.117805       13.619809       1
       14492.386       54.251116       14.575510       1
       14515.961       49.312685       13.405097       1
       14539.537       63.584790       14.685790       1
       14563.112       65.408058       13.518442       1
       14586.687       77.715335       14.774153       1
       14610.263       60.175328       13.498594       1
       14633.838       79.450339       14.797459       1
       14657.414       68.586902       13.637494       1
       14680.989       66.917458       14.741534       1
       14704.564       75.029357       13.668213       1
       14728.140       64.345149       14.716679       1
       14751.715       52.951542       13.463581       1
       14775.291       84.411156       14.921561       1
       14798.866       75.324849       13.632228       1
       14822.441       74.087572       14.802392       1
       14846.017       68.206817       13.551793       1
       14869.592       58.096830       14.557133       1
       14893.168       79.896239       13.567919       1
       14916.743       70.037374       14.541307       1
       14940.318       63.181417       13.260505       1
       14963.894       60.074499       14.242600       1
       14987.469       52.868400       13.100109       1
       15011.044       76.331520       14.317872       1
       15034.620       64.138953       13.201586       1
       15058.195       82.190910       14.471224       1
       15081.771       72.012938       13.207638       1
       15105.346       73.443638       14.333493       1
       15128.921       69.550124       13.218147       1
       15152.497       70.402802       14.308099       1
       15176.072       66.519060       13.184159       1
       15199.648       68.144767       14.240303       1
       15223.223       62.782511       12.901143       1
       15246.798       62.188272       14.129645       1
       15270.374       55.755141       12.978668       1
       15293.949       76.971013       14.315320       1
       15317.524       60.419574       13.033375       1
       15341.100       74.549280       14.278254       1
       15364.675       61.020534       13.036229       1
       15388.251       86.689334       14.436449       1
       15411.826       68.245172       13.099843       1
       15435.401       60.483186       14.458532       1
       15458.977       61.476656       13.024893       1
       15482.552       57.920571       14.486162       1
       15506.128       61.004964       13.081347       1
       15529.703       51.154852       14.348459       1
       15553.278       72.694063       13.132430       1
       15576.854       65.910163       14.523243       1
       15600.429       69.084360       13.171456       1
       15624.005       105.58129       14.951852       1
       15647.580       62.266413       13.006819       1
       15671.155       81.945342       14.692842       1
       15694.731       58.355434       12.915028       1
       15718.306       65.316166       14.372655       1
       15741.881       62.279774       12.880568       1
       15765.457       59.647244       14.297071       1
       15789.032       53.070186       12.704637       1
       15812.608       76.241458       14.447380       1
       15836.183       70.796827       12.915946       1
       15859.758       46.070162       14.076587       1
       15883.334       52.972655       12.776672       1
       15906.909       65.063329       14.337387       1
       15930.485       52.745997       12.814091       1
       15954.060       63.632637       14.246763       1
       15977.635       57.172551       12.903294       1
       16001.211       63.990951       14.326341       1
       16024.786       63.810073       12.991017       1
       16048.361       57.269233       14.321434       1
       16071.937       64.849717       12.939944       1
       16095.512       66.238891       14.437209       1
       16119.088       69.044392       12.978000       1
       16142.663       51.603161       14.297676       1
       16166.238       67.327695       13.053688       1
       16189.814       68.741616       14.516594       1
       16213.389       63.520352       13.041586       1
       16236.965       51.087296       14.456850       1
       16260.540       58.366481       13.134525       1
       16284.115       61.420902       14.528641       1
       16307.691       60.069795       13.238954       1
       16331.266       67.313787       14.836849       1
       16354.842       48.960555       13.131784       1
       16378.417       58.764454       14.428890       1
       16401.992       55.474158       13.348604       1
       16425.568       77.248066       14.702318       1
       16449.143       60.235823       13.406483       1
       16472.718       57.148232       14.516765       1
       16496.294       52.580556       13.498017       1
       16519.869       58.548819       14.908984       1
       16543.445       37.676814       13.794995       1
       16567.020       49.448840       15.665267       1
       16590.595       45.076012       14.897314       1
       16614.171       62.899349       17.441684       1
       16637.746       59.459181       16.897401       1
       16661.322       69.149021       19.982700       1
       16684.897       78.339435       20.328900       1
       16708.472       84.513932       24.114248       1
       16732.048       64.926810       24.764325       1
       16755.623       42.462611       29.953813       0
       16779.198       89.613375       31.965756       0
       16802.774       61.658678       39.028971       0
       16826.349       11.852291       40.773770       0
       16849.925       64.326011       50.789258       0
       16873.500       78.531743       52.671881       0
       16897.075       57.169873       64.314439       0
       16920.651      -29.498358       65.149087       0
       16944.226      -22.096884       79.259789       0
       16967.802       57.806598       82.328234       0
       16991.377       49.274657       100.08505       0
       17014.952      -101.70313       74.412853       0
       17038.528      -36.701104       123.11770       0
       17062.103       115.10663       128.32671       0
       17085.678       68.871309       152.62659       0
       17109.254      -150.65710       155.73218       0
       17132.829      -147.51377       191.18754       0
       17156.405       107.43730       205.89728       0
       17179.980       34.456361       255.13149       0
       17203.555      -81.777233       269.99202       0
       17227.131       159.33713       339.87847       0
       17250.706      -64.869915       352.89106       0
       17274.282       267.14774       434.11578       0
       17297.857       80.699613       441.05029       0
       17321.432       274.63009       535.99537       0
       17345.008      -384.70034       535.11063       0
       17368.583       310.42894       644.01309       0
       17392.159       137.23055       679.00589       0
       17415.734      -119.67587       791.33711       0
       17439.309      -22.446663       810.16454       0
       17462.885      -77.592638       951.27008       0
       17486.460      -93.719487       1022.2416       0
       17510.035      -429.80235       1274.0956       0
       17533.611      -200.76675       1535.2693       0
       17557.186      -1680.8083       2139.9294       0
       17580.762      -392.07250       2901.8502       0
       17604.337       1382.8472       3706.8808       0
