#WAVELENGTH FLUX ERROR MASK
       7452.7776       294014.86       644.20638       0
       7464.9252       93684.891       332.16196       0
       7477.0727       97205.338       386.15300       0
       7489.2203       83140.476       297.30032       0
       7501.3678       112078.99       349.00725       0
       7513.5154       63862.009       252.76642       0
       7525.6629       59359.739       290.62280       0
       7537.8105       45607.625       214.19702       0
       7549.9580       39493.538       238.62992       0
       7562.1056       31612.958       171.11192       0
       7574.2531       18306.890       187.61343       0
       7586.4007       21322.569       136.54666       0
       7598.5482       14501.440       154.32101       0
       7610.6958       9765.1021       116.22290       0
       7622.8433       11012.750       131.14706       0
       7634.9909       11636.450       98.136840       0
       7647.1385       8679.9254       112.61778       0
       7659.2860       7983.2894       84.276155       0
       7671.4336       4309.4396       94.076980       0
       7683.5811       5027.5158       75.091314       0
       7695.7287       3909.1011       84.444561       0
       7707.8762       3081.4458       63.126134       0
       7720.0238       3087.1948       72.211780       0
       7732.1713       3416.4985       56.342271       0
       7744.3189       3334.7350       65.727030       0
       7756.4664       2732.2186       51.190027       0
       7768.6140       2179.5873       59.258817       0
       7780.7615       2165.3406       46.844203       0
       7792.9091       3329.0500       56.713205       0
       7805.0566       1636.4825       42.915233       0
       7817.2042       2323.3262       50.356598       0
       7829.3517       1942.9008       39.195859       0
       7841.4993       1518.7182       44.997817       0
       7853.6468       1592.8656       35.106202       0
       7865.7944       1272.6257       40.867726       0
       7877.9419       1338.3364       31.991399       0
       7890.0895       975.91405       37.646891       0
       7902.2370       841.57524       32.073064       0
       7914.3846       798.53772       34.913353       0
       7926.5322       1104.7250       28.029319       0
       7938.6797       915.62965       33.313093       0
       7950.8273       966.06103       27.022337       0
       7962.9748       934.67970       32.402948       0
       7975.1224       946.99200       25.822079       0
       7987.2699       917.18590       31.310196       0
       7999.4175       984.85167       24.775533       0
       8011.5650       935.92887       30.557118       0
       8023.7126       811.32794       24.393735       0
       8035.8601       884.26994       29.692576       0
       8048.0077       893.91828       24.009273       0
       8060.1552       945.83794       29.224688       0
       8072.3028       815.90340       23.395155       0
       8084.4503       1003.2711       28.815249       0
       8096.5979       838.07216       23.099127       0
       8108.7454       856.51832       28.177561       0
       8120.8930       819.50296       21.286928       0
       8133.0405       703.86937       26.222960       0
       8145.1881       647.77073       20.661823       0
       8157.3356       661.80394       25.430455       1
       8169.4832       715.70528       20.481695       1
       8181.6307       605.63528       24.996844       1
       8193.7783       683.09758       20.226141       1
       8205.9259       613.92709       24.618380       1
       8218.0734       619.92182       19.873614       1
       8230.2210       647.21211       24.123017       1
       8242.3685       627.86788       19.834453       1
       8254.5161       520.35125       23.437591       1
       8266.6636       668.06792       19.531397       1
       8278.8112       602.48039       23.126447       1
       8290.9587       647.77959       18.520712       1
       8303.1063       586.60009       22.513702       1
       8315.2538       525.60830       17.957802       1
       8327.4014       639.55483       22.441953       1
       8339.5489       585.87130       17.737850       1
       8351.6965       276.54974       14.855447       1
       8363.8440       591.17997       17.606635       1
       8375.9916       597.37802       21.611319       1
       8388.1391       649.89600       17.431532       1
       8400.2867       549.34069       21.371223       1
       8412.4342       532.10534       16.960032       1
       8424.5818       617.79620       21.089121       1
       8436.7293       572.77356       17.042580       1
       8448.8769       539.69460       20.612015       1
       8461.0245       589.39034       16.820290       1
       8473.1720       556.26354       20.620621       1
       8485.3196       570.15012       16.557118       1
       8497.4671       561.75322       20.431625       1
       8509.6147       482.73726       16.221467       1
       8521.7622       548.69787       20.286050       1
       8533.9098       474.29756       16.050901       1
       8546.0573       454.11211       18.726504       1
       8558.2049       460.15644       14.806331       1
       8570.3524       431.54126       18.381653       1
       8582.5000       456.30354       14.658975       1
       8594.6475       488.26004       18.391997       1
       8606.7951       559.08637       14.857889       1
       8618.9426       537.47675       18.818941       1
       8631.0902       438.66064       14.523324       1
       8643.2377       514.62170       18.565770       1
       8655.3853       491.47063       14.590682       1
       8667.5328       553.10371       18.554761       1
       8679.6804       486.19204       14.402936       1
       8691.8279       436.32856       17.927921       1
       8703.9755       502.84024       14.379581       1
       8716.1230       481.79255       17.939593       1
       8728.2706       425.86461       13.999110       1
       8740.4182       486.34682       17.771182       1
       8752.5657       419.95699       13.723287       1
       8764.7133       415.44449       17.146074       1
       8776.8608       517.15446       13.866930       1
       8789.0084       517.44082       17.211637       1
       8801.1559       484.37562       13.666261       1
       8813.3035       441.27480       17.055032       1
       8825.4510       451.26419       13.117845       1
       8837.5986       460.76285       16.960483       1
       8849.7461       398.91874       13.202520       1
       8861.8937       461.62572       16.727221       1
       8874.0412       437.47282       13.196066       1
       8886.1888       433.33783       16.709126       1
       8898.3363       434.58393       13.057285       1
       8910.4839       449.35088       16.639154       1
       8922.6314       354.34030       12.791411       1
       8934.7790       398.87389       16.352585       1
       8946.9265       424.77635       12.866199       1
       8959.0741       411.31157       16.215973       1
       8971.2216       367.82730       12.650100       1
       8983.3692       329.35745       16.717436       1
       8995.5167       372.19990       18.545815       1
       9007.6643       298.86333       16.529086       1
       9019.8119       383.45259       13.436061       1
       9031.9594       326.72056       16.431007       1
       9044.1070       356.47571       13.271512       1
       9056.2545       345.08262       16.591745       1
       9068.4021       350.87335       13.272950       1
       9080.5496       286.78389       16.300434       1
       9092.6972       335.70643       13.177159       1
       9104.8447       323.95885       16.271217       1
       9116.9923       385.93201       13.205894       1
       9129.1398       328.86584       15.981617       1
       9141.2874       328.93739       13.325796       1
       9153.4349       344.69700       16.063746       1
       9165.5825       325.36694       13.275003       1
       9177.7300       314.49917       15.778277       1
       9189.8776       288.37876       13.045135       1
       9202.0251       336.05028       15.791923       1
       9214.1727       338.53223       13.018485       1
       9226.3202       326.85154       15.646306       1
       9238.4678       352.95481       12.539361       1
       9250.6153       329.90889       15.608842       1
       9262.7629       335.12068       12.467167       1
       9274.9104       300.32946       15.446166       1
       9287.0580       296.11906       12.349865       1
       9299.2056       323.50588       15.435514       1
       9311.3531       340.32059       12.404044       1
       9323.5007       300.86297       15.230756       1
       9335.6482       304.98639       12.245932       1
       9347.7958       305.28873       15.255188       1
       9359.9433       314.52044       13.837371       1
       9372.0909       297.98010       15.095801       1
       9384.2384       312.89526       12.186083       1
       9396.3860       297.32301       15.130100       1
       9408.5335       312.67241       12.148246       1
       9420.6811       315.10290       15.703934       1
       9432.8286       317.74993       12.879511       1
       9444.9762       296.01538       15.599049       1
       9457.1237       304.39565       12.795842       1
       9469.2713       297.68067       15.505941       1
       9481.4188       300.31792       12.730395       1
       9493.5664       311.28083       15.545132       1
       9505.7139       362.58874       21.972801       1
       9517.8615       301.15112       15.328885       1
       9530.0090       323.50783       12.630113       1
       9542.1566       263.90095       15.215176       1
       9554.3041       323.83851       12.558426       1
       9566.4517       324.66761       15.241756       1
       9578.5993       329.71666       12.516837       1
       9590.7468       316.05152       15.271691       1
       9602.8944       344.72871       12.557140       1
       9615.0419       289.05875       15.128710       1
       9627.1895       283.93193       12.301882       1
       9639.3370       242.70142       14.806410       1
       9651.4846       334.33363       12.430278       1
       9663.6321       356.11453       15.244245       1
       9675.7797       357.45623       12.446074       1
       9687.9272       339.68557       15.215820       1
       9700.0748       284.11137       12.178540       1
       9712.2223       305.19958       14.963215       1
       9724.3699       285.95427       12.118885       1
       9736.5174       346.35756       15.106180       1
       9748.6650       329.15640       12.281782       1
       9760.8125       327.20602       14.857872       1
       9772.9601       293.61935       12.016120       1
       9785.1076       299.77539       14.803815       1
       9797.2552       324.46825       12.128224       1
       9809.4027       330.83325       14.824818       1
       9821.5503       358.66436       12.199213       1
       9833.6979       290.94016       14.717141       1
       9845.8454       328.78662       12.082711       1
       9857.9930       285.96135       13.920953       1
       9870.1405       290.65948       11.150974       1
       9882.2881       316.03912       13.986318       1
       9894.4356       332.48526       11.286783       1
       9906.5832       332.11985       14.053686       1
       9918.7307       315.06535       11.230755       1
       9930.8783       336.67659       13.947760       1
       9943.0258       275.96008       11.077174       1
       9955.1734       322.92579       13.859475       1
       9967.3209       312.99300       11.133939       1
       9979.4685       135.39455       9.2235851       1
       9991.6160       308.56752       11.048337       1
       10003.764       300.78074       13.655905       1
       10015.911       309.95391       11.079544       1
       10028.059       322.29467       13.600824       1
       10040.206       294.49264       10.944916       1
       10052.354       326.68070       13.692310       1
       10064.501       306.96898       15.972215       1
       10076.649       318.49655       13.529469       1
       10088.796       317.48801       10.984739       1
       10100.944       326.43404       13.622357       1
       10113.092       274.84648       10.790619       1
       10125.239       336.53509       13.722447       1
       10137.387       268.99744       10.762862       1
       10149.534       142.32848       9.0838097       1
       10161.682       295.42682       10.855776       1
       10173.829       279.70700       13.420331       1
       10185.977       260.95873       15.499149       1
       10198.124       310.38763       13.414547       1
       10210.272       249.41156       10.770039       1
       10222.420       280.50290       13.344944       1
       10234.567       290.31323       10.680226       1
       10246.715       356.03817       13.533956       1
       10258.862       284.68743       11.733390       1
       10271.010       295.99882       13.228774       1
       10283.157       301.38953       10.672807       1
       10295.305       365.50818       12.758542       1
       10307.452       305.45577       9.8725973       1
       10319.600       322.05177       12.513263       1
       10331.747       337.72458       9.9672049       1
       10343.895       329.49826       12.308765       1
       10356.043       375.72185       10.065400       1
       10368.190       419.36914       12.880633       1
       10380.338       398.07209       10.116537       1
       10392.485       389.96574       12.721916       1
       10404.633       380.37210       10.036831       1
       10416.780       382.64843       12.687788       1
       10428.928       362.35496       9.9930098       1
       10441.075       381.80484       12.503058       1
       10453.223       420.57069       10.127219       1
       10465.371       453.31946       12.922142       1
       10477.518       576.23866       10.605223       1
       10489.666       506.98583       13.117520       1
       10501.813       456.17480       10.227798       1
       10513.961       398.73527       12.581330       1
       10526.108       347.70116       9.8539794       1
       10538.256       315.06734       12.274974       1
       10550.403       304.47608       9.7385038       1
       10562.551       329.07644       12.347503       1
       10574.699       299.09641       9.7734802       1
       10586.846       322.14692       12.338123       1
       10598.994       303.44487       9.8662809       1
       10611.141       314.07533       12.305896       1
       10623.289       311.29449       9.6737469       1
       10635.436       336.35113       10381704.       1
       10647.584       338.75283       9.8099854       1
       10659.731      -8.4671837       0.0000000       1
       10671.879       306.90368       9.6392441       1
       10684.027       312.70402       12.093564       1
       10696.174       315.06517       9.6410950       1
       10708.322       331.67267       12.173575       1
       10720.469       341.07234       9.6174720       1
       10732.617       299.05441       12.931374       1
       10744.764       296.25360       10.044161       1
       10756.912       280.12237       12.499857       1
       10769.059       304.48377       10.151867       1
       10781.207       284.92314       12.566828       1
       10793.354       291.27770       14.791422       1
       10805.502       303.43611       12.635888       1
       10817.650       314.67004       10.240370       1
       10829.797       270.02833       12.551044       1
       10841.945       289.45120       10.119744       1
       10854.092       280.30118       12.563201       1
       10866.240       288.99669       10.117048       1
       10878.387       280.47393       12.518884       1
       10890.535       307.86863       10.149064       1
       10902.682       283.41904       12.508845       1
       10914.830       306.15748       10.163720       1
       10926.978       317.68451       12.624017       1
       10939.125       291.42350       10.105726       1
       10951.273       299.70013       12.576479       1
       10963.420       287.41857       10.052418       1
       10975.568       298.17112       12.473830       1
       10987.715       276.09613       9.9534760       1
       10999.863       297.22971       12.498977       1
       11012.010       285.88861       10.027173       1
       11024.158       257.20909       12.324775       1
       11036.306       308.85061       10.103507       1
       11048.453       276.24670       12.392071       1
       11060.601       298.87264       10.464462       1
       11072.748       302.88480       12.565293       1
       11084.896       311.96100       10.554430       1
       11097.043       287.47948       12.435846       1
       11109.191       318.93919       10.162637       1
       11121.338       298.34001       12.502290       1
       11133.486       311.84707       10.223787       1
       11145.633       282.05411       12.446429       1
       11157.781       296.08307       10.699242       1
       11169.929       292.43794       13.098826       1
       11182.076       302.41507       10.328559       1
       11194.224       279.22357       12.977362       1
       11206.371       293.19081       10.672860       0
       11218.519       361.69948       13.288294       0
       11230.666       319.75399       10.790150       0
       11242.814       310.21679       13.166693       0
       11254.961       314.57387       10.764698       0
       11267.109       302.50459       12.966368       0
       11279.257       317.60295       10.843173       0
       11291.404       285.37996       13.006504       0
       11303.552       324.31167       10.813888       0
       11315.699       276.24060       9995936.2       0
       11327.847       300.90722       10.691765       0
       11339.994       274.57779       12.960718       0
       11352.142       326.63566       11.050249       0
       11364.289       285.57669       12.769736       0
       11376.437       298.60493       10.934820       0
       11388.585       307.12583       13.067538       0
       11400.732       271.01955       10.604821       0
       11412.880       249.99013       12.924232       0
       11425.027       294.62744       10.742917       0
       11437.175       301.18216       13.321361       0
       11449.322       249.38289       10.815411       0
       11461.470       283.89174       13.605348       0
       11473.617       256.33799       11.297454       0
       11485.765       212.38154       14.056086       0
       11497.913       215.39906       11.880426       0
       11510.060       196.32432       15.010740       0
       11522.208       153.20275       12.810883       0
       11534.355       194.20235       16.594736       0
       11546.503       248.42444       14.578744       0
       11558.650       262.05830       18.905321       0
       11570.798       282.12796       16.314141       0
       11582.945       116.07764       20.477310       0
       11595.093       191.74084       16.590440       0
       11607.240       259.41904       21.985590       0
       11619.388       185.28219       18.247776       0
       11631.536       218.63031       24.029114       0
       11643.683       195.65286       20.373511       0
       11655.831       246.57357       27.106430       0
       11667.978       95.787899       23.279977       0
       11680.126       66.022917       31.576557       0
       11692.273      -40.169633       27.964915       0
       11704.421       100.32242       38.599175       0
       11716.568       181.75664       34.257377       0
       11728.716      -75.025158       34.997631       0
       11740.864       173.81816       41.691314       0
       11753.011       48.767896       56.933784       0
       11765.159      -258.40865       49.889115       0
       11777.306       346.03472       68.475790       0
       11789.454      -133.51903       61.455173       0
       11801.601       497.35095       86.203516       0
       11813.749      -2020.6137       77.877798       0
