#WAVELENGTH FLUX ERROR MASK
       10161.171       23409.951       194.75535       0
       10183.656       19747.392       183.62491       0
       10206.140       19765.689       179.71948       0
       10228.625       14796.718       162.20410       0
       10251.109       10797.726       153.76314       0
       10273.593       13467.122       141.94490       0
       10296.078       9542.2632       134.36348       0
       10318.562       9926.7580       123.86614       0
       10341.046       9632.9748       121.24393       0
       10363.531       8786.0436       112.53429       0
       10386.015       8843.0448       112.05513       0
       10408.499       6684.3622       102.69822       0
       10430.984       6726.3244       100.75459       0
       10453.468       5905.4402       91.725339       0
       10475.952       4534.4424       86.102674       0
       10498.437       3929.5779       77.071391       0
       10520.921       4216.6432       74.484931       0
       10543.406       2984.5110       66.152922       0
       10565.890       2214.2183       62.807425       0
       10588.374       2585.2965       58.799159       0
       10610.859       2025.8454       56.587378       0
       10633.343       2138.8544       52.752930       0
       10655.827       1842.0338       51.472675       0
       10678.312       1541.2851       46.981441       0
       10700.796       1508.9046       45.382471       0
       10723.280       1134.6259       40.335209       0
       10745.765       1185.1356       38.268411       0
       10768.249       841.69218       33.777375       0
       10790.734       834.77062       32.159869       0
       10813.218       760.53567       29.158872       0
       10835.702       681.80218       27.789052       0
       10858.187       266.57338       16.981956       0
       10880.671       635.02624       26.616832       0
       10903.155       571.89594       25.414166       0
       10925.640       547.03790       24.465951       0
       10948.124       619.93157       24.212218       0
       10970.608       642.15439       23.735742       0
       10993.093       570.34156       22.813761       0
       11015.577       494.69690       21.843378       1
       11038.062       534.05190       21.630059       1
       11060.546       478.48235       20.605729       1
       11083.030       570.88955       20.671210       1
       11105.515       482.44424       19.885002       1
       11127.999       522.05851       19.980248       1
       11150.483       478.22427       19.351755       1
       11172.968       514.60857       19.681541       1
       11195.452       481.25218       19.161088       1
       11217.936       491.69282       19.209062       1
       11240.421       456.51527       18.914327       1
       11262.905       405.10651       18.526947       1
       11285.390       421.17186       18.474057       1
       11307.874       463.54423       18.859226       1
       11330.358       485.24548       18.755437       1
       11352.843       424.95391       18.516054       1
       11375.327       428.40897       18.103613       1
       11397.811       407.22791       19.687123       1
       11420.296       433.38062       18.188788       1
       11442.780       415.60093       18.270895       1
       11465.264       416.22408       18.146530       1
       11487.749       426.40546       17.974151       1
       11510.233       474.33328       18.363607       1
       11532.718       395.50738       17.869174       1
       11555.202       466.35443       18.331935       1
       11577.686       406.35319       17.939577       1
       11600.171       487.67146       18.489244       1
       11622.655       421.58506       18.042571       1
       11645.139       420.94635       17.744769       1
       11667.624       419.78791       18.035681       1
       11690.108       420.54118       17.716724       1
       11712.592       401.74513       17.494162       1
       11735.077       427.78663       17.638723       1
       11757.561       361.31320       17.103888       1
       11780.046       414.04687       17.426011       1
       11802.530       407.05043       17.308370       1
       11825.014       379.03543       17.025310       1
       11847.499       358.39817       17.017235       1
       11869.983       412.18783       17.125381       1
       11892.467       379.34410       16.935178       1
       11914.952       353.35298       16.723802       1
       11937.436       374.19562       16.959307       1
       11959.920       396.94128       16.952031       1
       11982.405       417.63602       16.076695       1
       12004.889       365.63073       16.081551       1
       12027.374       369.76075       15.369345       1
       12049.858       363.95811       16.094412       1
       12072.342       356.81107       15.436861       1
       12094.827       365.42893       16.076840       1
       12117.311       301.59066       15.168275       1
       12139.795       357.87505       15.822959       1
       12162.280       332.27154       15.179239       1
       12184.764       350.00722       15.828417       1
       12207.248       426.48824       15.872847       1
       12229.733       333.20242       15.546534       1
       12252.217       328.20405       15.118062       1
       12274.702       351.44644       15.583178       1
       12297.186       301.95580       14.785431       1
       12319.670       316.85344       15.330948       1
       12342.155       315.29763       14.922130       1
       12364.639       340.84112       15.432932       1
       12387.123       320.34554       14.984290       1
       12409.608       338.81532       15.386996       1
       12432.092       300.08170       14.615611       1
       12454.576       336.61274       15.353210       1
       12477.061       296.82001       14.407307       1
       12499.545       333.75445       15.170109       1
       12522.030       302.48803       14.433825       1
       12544.514       345.51134       15.178468       1
       12566.998       285.61446       14.340533       1
       12589.483       342.50480       15.032024       1
       12611.967       309.28406       14.622213       1
       12634.451       300.94254       14.797189       1
       12656.936       295.57285       14.589299       1
       12679.420       284.42082       14.690558       1
       12701.904       292.18193       14.435764       1
       12724.389       284.45327       14.392488       1
       12746.873       285.09896       14.225319       1
       12769.358       282.08795       14.587178       1
       12791.842       264.15121       14.116102       1
       12814.326       299.54636       14.710390       1
       12836.811       277.77541       14.193868       1
       12859.295       293.76650       14.533128       1
       12881.779       285.31436       14.075968       1
       12904.264       284.77704       14.413444       1
       12926.748       261.30392       13.934960       1
       12949.232       272.08296       14.204396       1
       12971.717       262.55840       13.887671       1
       12994.201       285.85741       14.394414       1
       13016.686       262.80605       13.787459       1
       13039.170       291.23609       14.399514       1
       13061.654       262.16864       13.763719       1
       13084.139       306.57799       14.426222       1
       13106.623       267.99657       12.968247       1
       13129.107       312.56251       13.940905       1
       13151.592       305.55953       13.045840       1
       13174.076       303.48248       13.900366       1
       13196.560      -5.0987394       0.0000000       1
       13219.045       335.70257       14.078739       1
       13241.529       318.40311       13.044866       1
       13264.013       328.17127       14.024327       1
       13286.498       335.26600       13.172207       1
       13308.982       320.46656       13.679452       1
       13331.467       344.44848       13.284372       1
       13353.951       347.62772       14.001045       1
       13376.435       317.15981       13.057869       1
       13398.920       307.26852       13.785846       1
       13421.404       308.88184       12.985188       1
       13443.888       320.51066       13.713638       1
       13466.373       323.41850       13.025902       1
       13488.857       299.75353       13.623061       1
       13511.341       342.22326       13.410034       1
       13533.826       331.36740       13.882643       1
       13556.310       326.52570       12.865799       1
       13578.795       350.54605       13.967225       1
       13601.279       340.96877       13.453352       1
       13623.763       367.14999       14.102113       1
       13646.248       400.26086       13.751983       1
       13668.732       415.13620       14.699393       1
       13691.216       417.79078       13.745190       1
       13713.701       434.42432       14.825341       1
       13736.185       426.01392       13.727105       1
       13758.669       404.36768       14.579308       1
       13781.154       341.67162       13.313408       1
       13803.638       324.30318       13.777001       1
       13826.123       318.40349       12.956817       1
       13848.607       321.93305       13.738968       1
       13871.091       323.34664       12.892610       1
       13893.576       301.45238       13.594365       1
       13916.060       338.84747       13.260865       1
       13938.544       346.39825       13.937929       1
       13961.029       321.85827       12.909531       1
       13983.513       352.36301       13.971483       1
       14005.997       350.21225       13.386752       1
       14028.482       342.30537       13.825250       1
       14050.966       367.03152       13.359414       1
       14073.451       351.90724       13.855149       1
       14095.935       347.62768       13.296794       1
       14118.419       297.81136       13.148862       1
       14140.904       297.83466       12.613546       1
       14163.388       290.15485       13.371736       1
       14185.872       297.63509       12.604818       1
       14208.357       265.92231       13.135892       1
       14230.841       263.75233       13.137071       1
       14253.325       258.56246       13.472879       1
       14275.810       264.29392       13.099366       1
       14298.294       255.47511       13.391332       1
       14320.779       249.46259       13.025427       1
       14343.263       249.06918       13.304129       1
       14365.747       247.48513       12.887021       1
       14388.232       245.43073       13.259274       1
       14410.716       256.55303       12.944408       1
       14433.200       250.22162       13.313562       1
       14455.685       255.56608       12.932792       1
       14478.169       252.69620       13.227818       1
       14500.653       255.74190       13.037439       1
       14523.138       255.45537       13.341115       1
       14545.622       248.34147       12.810639       1
       14568.107       248.02861       13.219370       1
       14590.591       264.96084       12.965253       1
       14613.075       256.59819       13.287316       1
       14635.560       242.42575       12.807937       1
       14658.044       237.15471       13.215585       1
       14680.528       254.22053       12.932896       1
       14703.013       251.71868       13.270369       1
       14725.497       247.96441       12.869325       1
       14747.981       239.52080       13.271138       1
       14770.466       240.35484       12.896375       1
       14792.950       233.38080       13.122881       1
       14815.435       254.42341       13.016025       1
       14837.919       223.43656       13.088862       1
       14860.403       137.54988       9.8261075       1
       14882.888       232.36807       13.087494       1
       14905.372       223.37331       12.609063       1
       14927.856       242.67208       13.041768       1
       14950.341       235.14167       5724530.4       1
       14972.825       229.75533       12.979519       1
       14995.309       219.51918       12.605637       1
       15017.794       225.72893       12.935685       1
       15040.278       228.15985       12.601622       1
       15062.763       250.04852       13.165513       1
       15085.247       246.57107       12.847428       1
       15107.731       249.92432       13.110141       1
       15130.216       236.57993       12.630066       1
       15152.700       242.58420       12.954392       1
       15175.184       252.69853       12.785096       1
       15197.669       225.48216       12.924081       1
       15220.153       246.79282       12.641518       1
       15242.637       240.28900       13.028343       1
       15265.122       213.17291       12.479392       1
       15287.606       251.88506       13.162811       1
       15310.091       240.22119       12.774753       1
       15332.575       245.40047       13.059663       1
       15355.059       260.10161       13.688499       1
       15377.544       258.54593       13.570933       1
       15400.028       241.75532       13.494191       1
       15422.512       241.53016       13.504583       1
       15444.997       244.50563       13.560121       1
       15467.481       232.28433       13.416867       1
       15489.965       244.95189       13.528154       1
       15512.450       222.66771       13.285391       1
       15534.934       235.93198       13.478991       1
       15557.419       252.13303       13.698345       1
       15579.903       249.10725       13.619994       1
       15602.387       257.22711       13.666209       1
       15624.872       242.03644       13.521186       1
       15647.356       262.75378       13.723503       1
       15669.840       268.41558       13.766436       1
       15692.325       248.40948       13.445869       1
       15714.809       284.08042       13.660084       1
       15737.293       254.39790       13.535795       1
       15759.778       244.56519       13.337023       1
       15782.262       243.07397       13.403482       1
       15804.747       313.00752       14.031113       1
       15827.231       236.00548       13.424434       1
       15849.715       306.71953       13.928808       1
       15872.200       261.71241       13.617470       1
       15894.684       250.98374       13.566717       1
       15917.168       237.74270       13.370647       1
       15939.653       215.75074       13.301972       1
       15962.137       228.14347       13.306454       1
       15984.621       216.62652       13.267779       1
       16007.106       221.97101       13.272914       1
       16029.590       218.08782       13.347088       1
       16052.074       221.96688       13.240474       1
       16074.559       208.58432       13.233170       1
       16097.043       242.64771       13.480525       1
       16119.528       234.42081       13.527685       1
       16142.012       233.94561       13.416589       1
       16164.496       1.2313628       0.0000000       1
       16186.981       235.75036       13.499547       1
       16209.465       238.66811       13.559518       1
       16231.949       238.23513       13.584395       1
       16254.434       232.73155       13.541768       1
       16276.918       231.92789       13.551061       1
       16299.402       239.43345       13.602124       1
       16321.887       213.83142       13.284955       1
       16344.371       254.45315       13.807623       1
       16366.856       231.29770       13.619134       1
       16389.340       229.24849       13.629770       1
       16411.824       205.87169       13.423882       1
       16434.309       254.20514       13.791625       1
       16456.793       214.90297       13.116101       1
       16479.277       203.61515       12.691192       1
       16501.762       216.70053       13.212541       1
       16524.246       217.93048       13.022281       1
       16546.730       218.03111       13.418310       1
       16569.215       211.53442       13.345419       1
       16591.699       230.45581       14.045485       1
       16614.184       219.40887       13.984864       1
       16636.668       219.65364       14.780769       1
       16659.152       205.82702       14.613839       1
       16681.637       97.969570       10.712956       1
       16704.121       221.42507       15.813596       1
       16726.605       217.91311       17.385234       1
       16749.090       195.97192       17.662745       1
       16771.574       195.81029       19.266968       0
       16794.058       201.45875       19.896029       0
       16816.543       223.48985       21.820959       0
       16839.027       208.76382       22.235837       0
       16861.512       277.48885       24.453957       0
       16883.996       126.29470       24.409966       0
       16906.480       353.63210       27.299068       0
       16928.965       249.08070       27.454094       0
       16951.449       259.15602       29.562822       0
       16973.933       242.35616       30.398978       0
       16996.418       268.77540       32.710138       0
       17018.902       138.82925       33.349625       0
       17041.386       252.88943       36.245367       0
       17063.871       250.07641       37.239528       0
       17086.355       198.65155       40.192770       0
       17108.840       97.717593       40.798210       0
       17131.324       397.60588       45.599358       0
       17153.808       13.048584       46.342456       0
