#WAVELENGTH FLUX ERROR MASK
       7543.7762       6849.4352       237.27328       0
       7555.9709      -7576.0926       262.42233       0
       7568.1656       385.05310       187.61322       0
       7580.3603       4431.3362       210.09116       0
       7592.5549       197.26013       150.99282       0
       7604.7496       2147.5215       173.83094       0
       7616.9443       346.76848       127.20539       0
       7629.1390      -672.95060       147.45727       0
       7641.3337      -1211.3333       108.72987       0
       7653.5283       575.38090       127.96109       0
       7665.7230      -631.96741       111.31378       0
       7677.9177      -814.31286       105.73052       0
       7690.1124       784.94307       77.975441       0
       7702.3070      -138.33382       88.751584       0
       7714.5017       1221.6812       66.941321       0
       7726.6964       368.35308       77.667217       0
       7738.8911       809.91297       64.794183       0
       7751.0857       243.22279       27259964.       0
       7763.2804      -57.288579       57.301514       0
       7775.4751       104.06015       64.629257       0
       7787.6698       221.46247       62.457674       0
       7799.8644       117.61257       58.385475       0
       7812.0591       154.34633       47.738945       0
       7824.2538       184.77281       52.951447       0
       7836.4485       274.40789       40.384727       0
       7848.6431       58.650392       47.640936       0
       7860.8378       277.95068       36.482102       0
       7873.0325       176.19625       43.511556       0
       7885.2272       247.72423       33.408850       0
       7897.4218       164.53706       34.693750       0
       7909.6165       253.74885       31.523589       0
       7921.8112       178.36683       32.677576       0
       7934.0059       234.73665       29.814788       0
       7946.2006       179.39733       31.063337       0
       7958.3952       129.58009       28.366264       0
       7970.5899       409.12944       35.399654       0
       7982.7846       287.78011       27.585759       0
       7994.9793       366.14037       34.016627       0
       8007.1739       136.58749       31.705546       0
       8019.3686       288.82195       32.798660       0
       8031.5633       292.16480       25.886337       0
       8043.7580       313.16131       12246014.       0
       8055.9526       262.37052       26.772786       0
       8068.1473       242.30516       31.478235       0
       8080.3420       289.26460       24.928456       0
       8092.5367       296.30197       30.958011       0
       8104.7313       313.96484       24.636961       0
       8116.9260       245.80222       30.366559       0
       8129.1207       271.52357       24.065225       0
       8141.3154       212.58531       29.778753       0
       8153.5100       311.64394       26.576048       1
       8165.7047       333.26322       29.554910       1
       8177.8994       310.21694       23.441666       1
       8190.0941       344.90208       29.017727       1
       8202.2887       233.06650       33.782838       1
       8214.4834       358.79229       28.529595       1
       8226.6781       301.81441       22.382243       1
       8238.8728       92.021122       27.140169       1
       8251.0675       384.14550       22.049511       1
       8263.2621       248.90670       26.979951       1
       8275.4568       167.30786       21.013199       1
       8287.6515       274.57985       34.875524       1
       8299.8462       267.96939       20.836602       1
       8312.0408       290.71793       25.973730       1
       8324.2355       322.13979       20.515065       1
       8336.4302       211.20048       25.331610       1
       8348.6249       223.81113       20.085640       1
       8360.8195       323.04087       25.342495       1
       8373.0142       317.47228       20.042865       1
       8385.2089       262.18594       24.796274       1
       8397.4036       329.18613       19.802423       1
       8409.5982       387.09608       24.864490       1
       8421.7929       320.42350       19.555560       1
       8433.9876       237.92949       24.101522       1
       8446.1823       300.36854       19.192351       1
       8458.3769       356.44047       24.010567       1
       8470.5716       331.89558       19.018355       1
       8482.7663       252.82277       23.460702       1
       8494.9610       300.09589       18.690146       1
       8507.1556       256.61510       23.168868       1
       8519.3503       353.77164       18.652966       1
       8531.5450       209.71790       22.795265       1
       8543.7397       244.19938       18.254459       1
       8555.9343       257.81003       22.900705       1
       8568.1290       228.46734       21.850712       1
       8580.3237       242.39242       22.717774       1
       8592.5184       273.59831       18.148194       1
       8604.7131       292.02335       22.763033       1
       8616.9077       248.74769       19.288020       1
       8629.1024       297.83496       22.773467       1
       8641.2971       266.68433       23.648180       1
       8653.4918       313.78505       22.556497       1
       8665.6864       260.83728       17.825931       1
       8677.8811       288.00995       22.283009       1
       8690.0758       277.31956       17.641051       1
       8702.2705       311.69684       21.987379       1
       8714.4651       243.02447       17.254117       1
       8726.6598       247.44155       21.444266       1
       8738.8545       256.52991       16.978090       1
       8751.0492       270.77548       21.142131       1
       8763.2438       289.77025       16.891053       1
       8775.4385       259.71066       20.941755       1
       8787.6332       266.79951       16.708564       1
       8799.8279       303.78067       21.020450       1
       8812.0225       274.21943       16.626416       1
       8824.2172       305.56174       21.356732       1
       8836.4119       271.22427       17.335028       1
       8848.6066       207.67724       18.188785       1
       8860.8012       252.39229       17.120793       1
       8872.9959       303.01355       20.356910       1
       8885.1906       253.42039       17.024598       1
       8897.3853       150.58445       16.869814       1
       8909.5800       250.47888       15.954814       1
       8921.7746       282.66682       19.971306       1
       8933.9693       300.81515       15.889714       1
       8946.1640       256.28669       19.664959       1
       8958.3587       272.22744       15.698854       1
       8970.5533       253.55164       19.556586       1
       8982.7480       261.75226       15.545028       1
       8994.9427       233.23523       19.436975       1
       9007.1374       271.80594       15.525607       1
       9019.3320       253.83496       19.375789       1
       9031.5267       244.18997       16.292664       1
       9043.7214       274.62069       19.389564       1
       9055.9161       216.01308       15.244516       1
       9068.1107       258.82413       19.127798       1
       9080.3054       194.95747       15.051673       1
       9092.5001       233.68221       19.012469       1
       9104.6948       267.13039       15.127470       1
       9116.8894       300.85345       18.976083       1
       9129.0841       288.48558       15.039593       1
       9141.2788       272.73996       18.772256       1
       9153.4735       209.66612       14.659483       1
       9165.6681       252.45438       18.457702       1
       9177.8628       256.98892       14.727158       1
       9190.0575       272.02027       18.496568       1
       9202.2522       216.59671       14.489636       1
       9214.4469       287.70311       18.418109       1
       9226.6415       293.69891       14.590369       1
       9238.8362       320.07430       18.327494       1
       9251.0309       253.51530       14.467231       1
       9263.2256       260.67183       18.102066       1
       9275.4202       271.29367       14.352528       1
       9287.6149       257.28734       17.991185       1
       9299.8096       253.84567       14.257235       1
       9312.0043       145.02731       12.126065       1
       9324.1989       295.13740       14.336585       1
       9336.3936       265.02832       17.850871       1
       9348.5883       257.40042       14.184093       1
       9360.7830       275.98940       17.766052       1
       9372.9776       292.72212       14.243290       1
       9385.1723       113.21655       13.120953       1
       9397.3670       261.24758       14.027964       1
       9409.5617       296.80592       17.555287       1
       9421.7563       247.39800       13.840228       1
       9433.9510       297.78201       17.562604       1
       9446.1457       242.83140       13.755898       1
       9458.3404       308.53659       17.563131       1
       9470.5350       266.49257       13.870499       1
       9482.7297       298.25066       17.509054       1
       9494.9244       294.48904       13.804494       1
       9507.1191       270.94985       17.221272       1
       9519.3138       297.06291       14.656149       1
       9531.5084       270.24114       17.179732       1
       9543.7031       284.06577       14.517632       1
       9555.8978       254.68334       16.998112       1
       9568.0925       258.67150       17.033700       1
       9580.2871       244.33797       16.878603       1
       9592.4818       298.05380       13.597012       1
       9604.6765       266.58084       16.857847       1
       9616.8712       252.87488       14.217091       1
       9629.0658       307.22365       17.054571       1
       9641.2605       286.72520       13.488792       1
       9653.4552       313.62600       17.001848       1
       9665.6499       281.81265       13.464889       1
       9677.8445       287.78487       16.840255       1
       9690.0392       296.22145       13.442780       1
       9702.2339       309.63999       16.840209       1
       9714.4286       314.48644       13.440926       1
       9726.6232       317.76548       16.794106       1
       9738.8179       280.50561       13.225949       1
       9751.0126       303.11298       16.677757       1
       9763.2073       290.89848       13.204276       1
       9775.4019       293.24382       16.563737       1
       9787.5966       307.04032       13.202774       1
       9799.7913       286.65534       16.938456       1
       9811.9860       289.48380       13.130880       1
       9824.1807       287.31766       16.448965       1
       9836.3753       283.06153       13.078410       1
       9848.5700       289.14765       16.445209       1
       9860.7647       276.52490       13.098899       1
       9872.9594       328.87470       16.528269       1
       9885.1540       290.17088       13.066785       1
       9897.3487       264.88299       16.205866       1
       9909.5434       292.25186       13.036676       1
       9921.7381       319.58936       16.443126       1
       9933.9327       284.05805       12.961082       1
       9946.1274       272.40497       16.106884       1
       9958.3221       289.96785       13.617808       1
       9970.5168       276.58495       16.037210       1
       9982.7114       266.30460       12.737487       1
       9994.9061       295.81859       16.004449       1
       10007.101       241.37694       12.618775       1
       10019.295       246.81892       15.840284       1
       10031.490       273.74487       12.723799       1
       10043.685       259.28324       15.854181       1
       10055.879       255.54755       12.618636       1
       10068.074       259.08878       15.744232       1
       10080.269       269.95719       12.704079       1
       10092.464       259.34430       15.807077       1
       10104.658       260.54970       12.681803       1
       10116.853       254.86749       15.847963       1
       10129.048       249.51372       12.513652       1
       10141.242       220.39868       15.566110       1
       10153.437       273.46440       12.547146       1
       10165.632       230.41643       15.571861       1
       10177.826       278.63120       12.584128       1
       10190.021       274.08987       15.762390       1
       10202.216       267.10750       12.464952       1
       10214.410       290.44603       15.731669       1
       10226.605       265.59237       12.401282       1
       10238.800       280.24254       15.535081       1
       10250.994       284.68568       12.372784       1
       10263.189       295.55226       15.558319       1
       10275.384       331.44313       14.064698       1
       10287.578       328.69750       15.926738       1
       10299.773       321.05651       13.900175       1
       10311.968       294.11839       15.756592       1
       10324.162       275.85585       18.008577       1
       10336.357       292.08247       15.542388       1
       10348.552       313.15128       12.415659       1
       10360.746       310.15641       15.473884       1
       10372.941       361.14464       12.578622       1
       10385.136       333.30736       15.631551       1
       10397.330       388.82457       12.653441       1
       10409.525       307.92066       15.503325       1
       10421.720       323.73960       12.365480       1
       10433.914       266.86803       15.279613       1
       10446.109       277.08992       12.390895       1
       10458.304       263.56784       15.238515       1
       10470.498       256.44782       12.143615       1
       10482.693       243.55875       15.166186       1
       10494.888       273.11375       12.220907       1
       10507.083       263.68219       15.233789       1
       10519.277       266.58946       12.199318       1
       10531.472       222.28693       13.589153       1
       10543.667       255.48083       12.147800       1
       10555.861       248.83942       15.122159       1
       10568.056       273.78076       15.427534       1
       10580.251       242.69395       15.002499       1
       10592.445       241.35843       12.005919       1
       10604.640       252.28380       15.057677       1
       10616.835       242.37102       11.944794       1
       10629.029       244.88362       14.944365       1
       10641.224       251.05992       11.978417       1
       10653.419       217.11664       14.748849       1
       10665.613       252.75993       11.944625       1
       10677.808       249.06677       14.963812       1
       10690.003       243.79487       11.906103       1
       10702.197       262.69940       14.843168       1
       10714.392       229.79199       11.844048       1
       10726.587       238.24788       14.867761       1
       10738.781       234.03657       11.835336       1
       10750.976       238.69449       14.855532       1
       10763.171       264.62184       11.975648       1
       10775.365       202.53083       13.141456       1
       10787.560       262.62056       11.912900       1
       10799.755       262.69408       14.945709       1
       10811.949       233.61122       11.795656       1
       10824.144       238.66247       14.739546       1
       10836.339       221.84549       11.694944       1
       10848.533       258.96092       14.829003       1
       10860.728       245.44017       11.781916       1
       10872.923       267.91859       14.860841       1
       10885.117       241.12930       11.750087       1
       10897.312       233.72987       14.708101       1
       10909.507       235.90073       11.730938       1
       10921.701       279.69377       14.868645       1
       10933.896       249.06943       11.798701       1
       10946.091       252.01262       14.782600       1
       10958.286       240.22798       11.760250       1
       10970.480       278.33291       14.937832       1
       10982.675       239.02640       11.656105       1
       10994.870       281.55850       14.872608       1
       11007.064       243.60016       11.771632       1
       11019.259       258.98773       14.789417       1
       11031.454       249.08310       11.783372       1
       11043.648       276.97972       14.911013       1
       11055.843       219.71714       11.681685       1
       11068.038       260.56008       14.782427       1
       11080.232       224.96878       11.703558       1
       11092.427       237.04578       14.661207       1
       11104.622       235.39660       11.736447       1
       11116.816       262.90735       14.794077       1
       11129.011       256.88972       11.810572       1
       11141.206       231.16528       14.695366       1
       11153.400       245.13691       12.095911       1
       11165.595       245.26503       14.701188       1
       11177.790       257.61624       11.816518       1
       11189.984       254.77605       14.824412       1
       11202.179       271.66372       11.861803       0
       11214.374       263.63465       14.798333       0
       11226.568       238.87416       11.747379       0
       11238.763       239.35447       14.713343       0
       11250.958       236.77083       13.233826       0
       11263.152       252.03551       14.816365       0
       11275.347       254.04294       13.556524       0
       11287.542       262.76178       15.252329       0
       11299.736       260.57115       12.459494       0
       11311.931       291.27973       16.139145       0
       11324.126       243.40045       13.242251       0
       11336.320       256.32572       17.337396       0
       11348.515       265.20210       14.610616       0
       11360.710       235.71455       19.166343       0
       11372.905       288.75630       16.469116       0
       11385.099       274.44841       21.881438       0
       11397.294       295.01092       18.575756       0
       11409.489       248.60970       24.524422       0
       11421.683       285.41420       20.656143       0
       11433.878       248.05547       27.126220       0
       11446.073       238.48705       22.766216       0
       11458.267       209.95782       30.158692       0
       11470.462       356.49785       26.045839       0
       11482.657       195.93845       35.025381       0
       11494.851       354.36968       30.923802       0
       11507.046       420.00167       42.854795       0
       11519.241       497.73798       38.304497       0
       11531.435       309.98865       45.512819       0
       11543.630       328.80196       47.370194       0
       11555.825       922.35244       66.336754       0
       11568.019       620.29017       58.257815       0
       11580.214       865.28883       94.755091       0
       11592.409       316.17536       71.504124       0
       11604.603       996.27300       103.45730       0
       11616.798       858.07314       93.946519       0
       11628.993      -381.86000       134.68290       0
       11641.187       1398.6067       124.48579       0
       11653.382       1558.4633       177.47883       0
       11665.577       2293.3314       151.32210       0
       11677.771      -2065.4898       192.26489       0
       11689.966       2758.4297       163.69387       0
       11702.161      -1262.7385       189.81385       0
       11714.355       4163.2602       158.86785       0
       11726.550      -1520.9012       188.07779       0
       11738.745      -3529.3132       154.91797       0
       11750.939       6986.7690       207.48383       0
       11763.134      -433.78014       178.26144       0
       11775.329       5864.3357       242.58350       0
       11787.523       6719.1686       226.48386       0
       11799.718       7387.1998       246.71154       0
       11811.913      -5625.7514       245.28230       0
       11824.108       13210.593       333.09761       0
       11836.302      -4268.3824       283.46469       0
       11848.497       9394.5986       397.58050       0
       11860.692       29804.799       356.60658       0
       11872.886      -8705.2365       481.80240       0
       11885.081       34863.079       417.96290       0
       11897.276       948.33009       544.58624       0
       11909.470       5461.2696       438.35057       0
       11921.665       58594.641       549.86317       0
