#WAVELENGTH FLUX ERROR MASK
       10161.171       24859.776       196.21108       0
       10183.656       22587.568       186.56080       0
       10206.140       20430.793       180.50967       0
       10228.625       16624.850       163.94354       0
       10251.109       12884.350       155.45402       0
       10273.593       9774.6044       140.13469       0
       10296.078       11475.784       135.72144       0
       10318.562       10761.485       125.03169       0
       10341.046       9372.4944       137.12398       0
       10363.531       8436.4962       112.96751       0
       10386.015       9105.2892       112.38596       0
       10408.499       6367.2608       102.24435       0
       10430.984       6860.0769       101.52396       0
       10453.468       4445.7940       90.138059       0
       10475.952       4654.7550       86.463537       0
       10498.437       3631.9577       77.208522       0
       10520.921       3270.2737       73.214505       0
       10543.406       3840.9652       67.906483       0
       10565.890       2985.7856       64.544357       0
       10588.374       2292.0912       58.306646       0
       10610.859       1862.8030       56.205935       0
       10633.343       1972.2035       52.798033       0
       10655.827       1914.7205       51.717442       0
       10678.312       1450.0718       46.771554       0
       10700.796       1265.8020       44.703232       0
       10723.280       1321.4909       40.820935       0
       10745.765       1052.3764       37.910606       0
       10768.249       831.41552       33.683841       0
       10790.734       782.47650       31.673657       0
       10813.218       760.79731       29.268268       0
       10835.702       639.06171       27.744192       0
       10858.187       651.74794       26.055080       0
       10880.671       575.91174       25.428579       0
       10903.155       541.82783       23.854543       0
       10925.640       449.83541       23.271297       0
       10948.124       491.78070       22.294398       0
       10970.608       478.47655       22.150192       0
       10993.093       429.38408       20.744093       0
       11015.577       323.84332       17.875584       1
       11038.062       444.13173       19.842167       1
       11060.546       416.45546       19.767683       1
       11083.030       405.89403       18.727705       1
       11105.515       381.18445       18.715607       1
       11127.999       397.99378       18.109688       1
       11150.483       286.17363       15.723951       1
       11172.968       273.90311       15.715869       1
       11195.452       284.62864       15.512272       1
       11217.936       386.78912       17.616294       1
       11240.421       399.79955       5761013.1       1
       11262.905       352.13520       17.284817       1
       11285.390       375.21820       17.705468       1
       11307.874       351.19052       17.109542       1
       11330.358       350.03776       17.474905       1
       11352.843       338.52758       5619895.2       1
       11375.327       400.10324       17.626376       1
       11397.811       378.13067       17.003857       1
       11420.296       372.19190       17.399268       1
       11442.780       364.08397       16.856005       1
       11465.264       363.33295       17.312716       1
       11487.749       353.88542       16.741506       1
       11510.233       345.64225       17.082510       1
       11532.718       349.15864       16.620571       1
       11555.202       342.97148       16.962111       1
       11577.686       333.75466       16.519450       1
       11600.171       345.12321       16.887470       1
       11622.655       330.29705       16.432378       1
       11645.139       334.58914       16.672946       1
       11667.624       332.73231       16.307872       1
       11690.108       331.03246       16.580796       1
       11712.592       347.15371       16.190550       1
       11735.077       307.36600       16.214998       1
       11757.561       345.80421       16.083409       1
       11780.046       313.47634       16.208237       1
       11802.530       317.53893       16.956749       1
       11825.014       335.75935       16.135637       1
       11847.499       290.65787       16.616619       1
       11869.983       324.43844       15.848723       1
       11892.467       327.87478       16.223786       1
       11914.952       324.15154       16.028660       1
       11937.436       321.73352       16.130070       1
       11959.920       303.74462       15.854638       1
       11982.405       309.74070       15.422860       1
       12004.889       286.64446       15.616990       1
       12027.374       308.94288       15.012106       1
       12049.858       292.14226       15.595180       1
       12072.342       313.03549       15.234678       1
       12094.827       291.99114       15.523399       1
       12117.311       284.82104       6964542.1       1
       12139.795       265.20409       15.234164       1
       12162.280       273.59586       14.684624       1
       12184.764       284.62069       15.364330       1
       12207.248       260.32031       14.690763       1
       12229.733       238.65224       14.820441       1
       12252.217       263.98768       14.663737       1
       12274.702       249.34045       14.872685       1
       12297.186       258.02832       14.460129       1
       12319.670       242.16289       14.830783       1
       12342.155       279.83483       14.678333       1
       12364.639       244.92597       14.823261       1
       12387.123       229.89319       14.230209       1
       12409.608       226.20491       14.511883       1
       12432.092       265.15827       14.338191       1
       12454.576       240.26912       14.511094       1
       12477.061       249.99581       14.207198       1
       12499.545       238.42727       14.556680       1
       12522.030       251.95435       14.252757       1
       12544.514       233.00676       14.524805       1
       12566.998       250.37709       14.201498       1
       12589.483       232.35021       14.325640       1
       12611.967       255.57398       14.266206       1
       12634.451       210.19591       14.255508       1
       12656.936       245.78703       14.133397       1
       12679.420       233.30119       14.225511       1
       12701.904       241.00730       14.163484       1
       12724.389       247.71478       14.100845       1
       12746.873       249.57577       14.122840       1
       12769.358       200.48335       13.973705       1
       12791.842       238.73434       13.901458       1
       12814.326       225.58383       14.115341       1
       12836.811       202.13697       13.551500       1
       12859.295       209.38863       14.027558       1
       12881.779       217.82507       13.642498       1
       12904.264       216.99548       14.001818       1
       12926.748       229.45584       13.781873       1
       12949.232       212.50633       13.965237       1
       12971.717       236.57392       13.674997       1
       12994.201       202.09856       13.748415       1
       13016.686       211.04385       13.414810       1
       13039.170       216.64542       13.762929       1
       13061.654       212.72483       13.424745       1
       13084.139       194.56725       13.495627       1
       13106.623       222.11136       13.474930       1
       13129.107       224.55457       13.699052       1
       13151.592       228.22476       13.474736       1
       13174.076       235.96948       13.800323       1
       13196.560       223.97799       13.346688       1
       13219.045       222.28307       13.663376       1
       13241.529       233.92904       13.389850       1
       13264.013       224.68538       4352801.4       1
       13286.498       233.06529       13.328107       1
       13308.982       237.12295       14.735573       1
       13331.467       231.46413       13.383423       1
       13353.951       239.32389       13.691973       1
       13376.435       243.85221       13.416452       1
       13398.920       249.92049       13.719270       1
       13421.404       235.07015       13.258283       1
       13443.888       244.58716       13.670425       1
       13466.373       225.99591       13.160447       1
       13488.857       227.88911       13.481631       1
       13511.341       188.88657       11.749344       1
       13533.826       230.32698       13.456925       1
       13556.310       233.29708       13.057840       1
       13578.795       239.34582       13.583969       1
       13601.279       231.75976       13.057292       1
       13623.763       254.15656       13.666436       1
       13646.248       257.03396       13.283249       1
       13668.732       276.29775       13.881414       1
       13691.216       283.29872       13.390188       1
       13713.701       278.95556       13.833199       1
       13736.185       286.35921       13.562081       1
       13758.669       253.04257       13.585105       1
       13781.154       251.07915       13.208664       1
       13803.638       243.81003       13.950581       1
       13826.123       239.90326       13.245523       1
       13848.607       238.11856       13.471925       1
       13871.091       226.59799       13.071293       1
       13893.576       232.09578       13.424370       1
       13916.060       228.10013       13.086239       1
       13938.544       230.11942       13.440940       1
       13961.029       236.81253       13.103681       1
       13983.513       238.89826       13.485667       1
       14005.997       247.17646       13.210950       1
       14028.482       252.81251       13.533463       1
       14050.966       239.66382       13.281615       1
       14073.451       246.12542       13.433529       1
       14095.935       237.04493       12.960567       1
       14118.419       232.13645       13.240634       1
       14140.904       145.54810       10.692398       1
       14163.388       223.24940       13.253052       1
       14185.872       198.30470       12.602587       1
       14208.357       208.55964       4150694.1       1
       14230.841       189.21852       12.552427       1
       14253.325       216.61279       13.122615       1
       14275.810       193.63247       12.515451       1
       14298.294       206.29821       12.953269       1
       14320.779       208.27891       12.634143       1
       14343.263       224.54094       13.146683       1
       14365.747       188.41930       12.380163       1
       14388.232       210.92100       13.009001       1
       14410.716       195.08762       12.386580       1
       14433.200       198.32554       12.867636       1
       14455.685       191.74776       12.408314       1
       14478.169       206.60730       12.912769       1
       14500.653       192.48802       12.471706       1
       14523.138       212.71553       12.981572       1
       14545.622       194.45936       12.461730       1
       14568.107       206.50292       12.888859       1
       14590.591       191.66345       12.383661       1
       14613.075       198.90135       12.822085       1
       14635.560       183.09238       12.254986       1
       14658.044       198.33474       12.881065       1
       14680.528       188.15653       12.381694       1
       14703.013       218.82558       13.061899       1
       14725.497       184.96748       12.326433       1
       14747.981       182.46480       12.680858       1
       14770.466       183.11717       12.314809       1
       14792.950       188.18713       12.776151       1
       14815.435       178.63230       12.203015       1
       14837.919       188.71328       12.758700       1
       14860.403       188.46109       12.377196       1
       14882.888       207.04064       12.883309       1
       14905.372       164.09752       12.142415       1
       14927.856       185.82014       12.605513       1
       14950.341       158.39649       12.063219       1
       14972.825       176.37597       12.577402       1
       14995.309       186.27730       12.360704       1
       15017.794       193.90916       12.597713       1
       15040.278       181.69961       12.237641       1
       15062.763       185.82909       12.895219       1
       15085.247       182.65951       12.192307       1
       15107.731       185.95995       12.926395       1
       15130.216       189.10854       12.328867       1
       15152.700       195.87851       12.709734       1
       15175.184       192.71747       12.308708       1
       15197.669       209.42988       12.784209       1
       15220.153       176.27878       12.146344       1
       15242.637       206.88122       12.738376       1
       15265.122       191.75582       12.246629       1
       15287.606       190.07685       12.651363       1
       15310.091       167.59271       12.026587       1
       15332.575       193.59226       12.558320       1
       15355.059       176.48620       12.178003       1
       15377.544       186.84600       12.611205       1
       15400.028       181.17587       12.210343       1
       15422.512       187.09319       12.577811       1
       15444.997       182.73020       12.240184       1
       15467.481       191.85395       12.631212       1
       15489.965       196.59786       12.300609       1
       15512.450       204.55429       12.763156       1
       15534.934       193.90308       12.366502       1
       15557.419       190.30707       12.643055       1
       15579.903       186.86890       12.271515       1
       15602.387       181.64926       12.579901       1
       15624.872       189.00882       12.316214       1
       15647.356       189.71939       12.608477       1
       15669.840       193.67604       12.288731       1
       15692.325       145.54666       10.830928       1
       15714.809       182.90477       12.175863       1
       15737.293       197.48234       12.680446       1
       15759.778       189.38316       12.209161       1
       15782.262       188.17429       12.547682       1
       15804.747       176.08824       12.909386       1
       15827.231       178.96717       12.471556       1
       15849.715       180.31516       12.909658       1
       15872.200       177.94305       12.457435       1
       15894.684       194.68661       12.345813       1
       15917.168       171.91346       13.347090       1
       15939.653       184.22359       12.267564       1
       15962.137       195.06148       12.626655       1
       15984.621       178.94770       12.723333       1
       16007.106       179.78571       12.455511       1
       16029.590       188.51876       12.450527       1
       16052.074       172.40998       12.441942       1
       16074.559       179.25236       12.193975       1
       16097.043       178.08032       12.504357       1
       16119.528       178.63436       12.195568       1
       16142.012       172.98947       4031800.3       1
       16164.496       141.86215       10.339666       1
       16186.981       171.90649       12.502922       1
       16209.465       174.12091       12.198080       1
       16231.949       175.79661       12.584259       1
       16254.434       177.00128       12.311259       1
       16276.918       172.28944       12.592197       1
       16299.402       186.21563       12.383884       1
       16321.887       175.96632       12.631210       1
       16344.371       183.43959       12.401490       1
       16366.856       183.25766       12.757666       1
       16389.340       175.22141       12.305040       1
       16411.824       179.74086       12.736232       1
       16434.309       171.40758       12.324519       1
       16456.793       176.37350       12.758786       1
       16479.277       162.07142       12.319901       1
       16501.762       174.00154       12.859333       1
       16524.246       155.07218       12.540234       1
       16546.730       144.92539       12.885258       1
       16569.215       183.78426       13.024613       1
       16591.699       165.83531       13.551077       1
       16614.184       98.713482       10.425825       1
       16636.668       155.28633       14.229787       1
       16659.152       162.56108       14.344558       1
       16681.637       189.40821       15.685170       1
       16704.121       188.83691       15.618712       1
       16726.605       148.83246       16.966734       1
       16749.090       161.06666       17.459715       1
       16771.574       173.78301       19.115808       0
       16794.058       241.31906       20.109714       0
       16816.543       203.33957       21.562315       0
       16839.027       254.64429       22.547513       0
       16861.512       112.89869       23.570694       0
       16883.996       157.58717       24.476464       0
       16906.480       184.32995       26.621552       0
       16928.965       172.29697       27.172188       0
       16951.449       105.03784       29.119334       0
       16973.933       198.75052       30.149369       0
       16996.418       171.23009       32.479701       0
       17018.902       211.41183       33.583857       0
       17041.386       187.40081       35.919730       0
       17063.871       277.01556       37.122717       0
       17086.355       281.93824       40.134639       0
       17108.840       78.002502       41.042028       0
       17131.324       238.65886       45.051666       0
       17153.808       161.18302       47.077600       0
