#WAVELENGTH FLUX ERROR MASK
       7452.7776       195323.94       634.40591       0
       7464.9252       109851.11       376.07117       0
       7477.0727       118604.32       387.89388       0
       7489.2203       86102.801       340.21828       0
       7501.3678       75754.326       343.54854       0
       7513.5154       87301.120       290.78584       0
       7525.6629       50945.412       290.98260       0
       7537.8105       51753.524       215.92459       0
       7549.9580       46976.205       241.62163       0
       7562.1056       31416.217       188.23577       0
       7574.2531       28484.665       191.12560       0
       7586.4007       25692.451       152.62271       0
       7598.5482       15590.118       155.60769       0
       7610.6958       13577.288       124.32878       0
       7622.8433       10083.475       131.07870       0
       7634.9909       9430.9442       97.575867       0
       7647.1385       5928.7779       111.94860       0
       7659.2860       7840.6195       83.910471       0
       7671.4336       6551.1968       95.638664       0
       7683.5811       5287.0708       72.518750       0
       7695.7287       4206.6740       80.023230       0
       7707.8762       3606.2634       61.342731       0
       7720.0238       2998.6461       68.745697       0
       7732.1713       2953.9295       52.358191       0
       7744.3189       3014.8414       61.991171       0
       7756.4664       1809.4404       47.318314       0
       7768.6140       2168.3258       56.712350       0
       7780.7615       2373.7267       44.498209       0
       7792.9091       1877.0497       52.349344       0
       7805.0566       1374.1508       39.322703       0
       7817.2042       1716.0182       47.567350       0
       7829.3517       1572.7834       36.078024       0
       7841.4993       1392.7464       42.583790       0
       7853.6468       1174.8217       40.435158       0
       7865.7944       1181.7134       38.590914       0
       7877.9419       1119.7358       29.708218       0
       7890.0895       1010.3856       36.261471       0
       7902.2370       1038.8743       27.830384       0
       7914.3846       873.27594       33.832889       0
       7926.5322       1014.8689       26.526940       0
       7938.6797       817.54985       31.941051       0
       7950.8273       778.43942       25.138616       0
       7962.9748       788.34907       30.543175       0
       7975.1224       741.77641       24.088664       0
       7987.2699       797.54149       29.257365       0
       7999.4175       738.36963       23.118933       0
       8011.5650       732.82276       28.351255       0
       8023.7126       765.54835       22.687282       0
       8035.8601       665.57726       27.774498       0
       8048.0077       653.13568       22.069733       0
       8060.1552       728.38942       27.150850       0
       8072.3028       728.41129       21.815022       0
       8084.4503       813.90073       27.113893       0
       8096.5979       674.19301       21.253343       0
       8108.7454       582.08714       26.036639       0
       8120.8930       537.33903       21.262111       0
       8133.0405       689.64220       25.532748       0
       8145.1881       624.40967       20.635566       0
       8157.3356       599.09435       25.392178       1
       8169.4832       642.52336       20.324974       1
       8181.6307       494.80110       24.723385       1
       8193.7783       638.30896       20.018766       1
       8205.9259       645.33908       24.734941       1
       8218.0734       575.02511       19.583765       1
       8230.2210       509.30798       23.915400       1
       8242.3685       504.15765       18.936027       1
       8254.5161       588.61604       23.652826       1
       8266.6636       501.21868       18.624146       1
       8278.8112       475.00793       22.888971       1
       8290.9587       482.67626       18.237067       1
       8303.1063       420.71908       22.171532       1
       8315.2538       534.58716       17.976178       1
       8327.4014       508.43153       21.978513       1
       8339.5489       462.08425       17.583394       1
       8351.6965       381.58161       21.508879       1
       8363.8440       479.99295       17.428572       1
       8375.9916       547.97842       21.280217       1
       8388.1391       511.18629       17.267106       1
       8400.2867       419.06832       21.117757       1
       8412.4342       431.19706       16.934381       1
       8424.5818       470.63186       20.939140       1
       8436.7293       444.60620       16.704426       1
       8448.8769       461.24159       20.651824       1
       8461.0245       510.17545       16.680665       1
       8473.1720       453.50774       20.381601       1
       8485.3196       490.32558       16.399835       1
       8497.4671       526.11248       20.380800       1
       8509.6147       412.10372       16.066711       1
       8521.7622       407.58827       19.862704       1
       8533.9098       436.29293       15.980477       1
       8546.0573       400.47115       19.701864       1
       8558.2049       352.32624       19.734710       1
       8570.3524       401.21609       19.533303       1
       8582.5000       358.83712       15.624260       1
       8594.6475       425.17966       19.564391       1
       8606.7951       355.25808       15.602210       1
       8618.9426       412.09987       19.614454       1
       8631.0902       386.93935       15.587482       1
       8643.2377       370.19057       19.381389       1
       8655.3853       408.08349       15.634556       1
       8667.5328       370.52741       19.296530       1
       8679.6804       336.59780       15.318064       1
       8691.8279       384.52896       19.064248       1
       8703.9755       367.67789       15.196204       1
       8716.1230       344.92464       18.670754       1
       8728.2706       400.14065       15.052257       1
       8740.4182       338.26982       18.187046       1
       8752.5657       344.63355       14.607078       1
       8764.7133       355.49617       18.128495       1
       8776.8608       336.70312       14.445388       1
       8789.0084       401.69433       18.084160       1
       8801.1559       360.79692       14.439486       1
       8813.3035       308.84076       17.712596       1
       8825.4510       370.35429       14.342618       1
       8837.5986       324.52427       17.572617       1
       8849.7461       330.63533       14.133086       1
       8861.8937       342.04474       17.471249       1
       8874.0412       304.98948       13.925228       1
       8886.1888       306.17222       17.258859       1
       8898.3363       311.74753       13.832476       1
       8910.4839       343.94582       17.250270       1
       8922.6314       297.78648       17.174597       1
       8934.7790       309.56694       16.988139       1
       8946.9265       301.35802       13.603381       1
       8959.0741       297.59762       16.836608       1
       8971.2216       261.55593       13.379219       1
       8983.3692       304.67360       16.686836       1
       8995.5167       236.71341       13.167639       1
       9007.6643       257.61398       16.436685       1
       9019.8119       248.23808       13.119736       1
       9031.9594       245.56090       16.240114       1
       9044.1070       282.10014       13.189642       1
       9056.2545       232.67813       16.225795       1
       9068.4021       252.62259       13.017416       1
       9080.5496       258.62180       16.248135       1
       9092.6972       221.82633       12.919129       1
       9104.8447       243.15214       16.082565       1
       9116.9923       205.17578       12.779405       1
       9129.1398       298.25778       16.081307       1
       9141.2874       233.86003       12.705965       1
       9153.4349       229.88147       15.789134       1
       9165.5825       245.12667       13.074504       1
       9177.7300       250.66355       9261527.9       1
       9189.8776       233.31579       13.331513       1
       9202.0251       218.38703       15.391921       1
       9214.1727       224.06278       12.735692       1
       9226.3202       276.98915       15.577080       1
       9238.4678       225.66808       12.576400       1
       9250.6153       239.08390       15.217773       1
       9262.7629       230.20712       12.157516       1
       9274.9104       228.32937       15.186483       1
       9287.0580       208.93906       12.085246       1
       9299.2056       245.55297       15.108742       1
       9311.3531       240.68809       12.133728       1
       9323.5007       244.56907       15.028911       1
       9335.6482       200.48160       11.918857       1
       9347.7958       262.85598       15.089157       1
       9359.9433       241.42256       12.010061       1
       9372.0909       214.92056       14.799855       1
       9384.2384       188.09482       11.788869       1
       9396.3860       211.02864       14.824154       1
       9408.5335       206.69515       11.752539       1
       9420.6811       216.73082       14.734227       1
       9432.8286       216.02016       11.781221       1
       9444.9762       214.76888       14.614311       1
       9457.1237       206.13134       11.656873       1
       9469.2713       200.00748       14.467931       1
       9481.4188       209.09476       11.672614       1
       9493.5664       234.03770       14.490978       1
       9505.7139       222.28023       11.610596       1
       9517.8615       175.79936       14.241487       1
       9530.0090       217.19868       11.554682       1
       9542.1566       188.61122       14.198138       1
       9554.3041       189.83721       11.404658       1
       9566.4517       189.40743       14.123335       1
       9578.5993       185.11759       11.344875       1
       9590.7468       206.89802       14.083146       1
       9602.8944       201.39088       11.340757       1
       9615.0419       209.62775       14.026997       1
       9627.1895       211.20451       11.308094       1
       9639.3370       198.24396       13.964021       1
       9651.4846       209.39004       11.283243       1
       9663.6321       199.65509       13.916199       1
       9675.7797       199.27623       11.193987       1
       9687.9272       219.16813       13.990840       1
       9700.0748       195.03174       11.179934       1
       9712.2223       200.63013       13.864562       1
       9724.3699       208.88899       11.108715       1
       9736.5174       208.51500       13.818085       1
       9748.6650       216.28839       11.436726       1
       9760.8125       204.33444       13.775280       1
       9772.9601       189.45949       11.308013       1
       9785.1076       210.64386       13.652170       1
       9797.2552       217.91474       11.033662       1
       9809.4027       200.73773       13.612006       1
       9821.5503       210.34228       10.998800       1
       9833.6979       220.97397       13.639986       1
       9845.8454       220.02915       10.962390       1
       9857.9930       165.14061       13.363606       1
       9870.1405       220.82322       10.885513       1
       9882.2881       171.29505       13.373983       1
       9894.4356       220.59586       10.941455       1
       9906.5832       208.78015       13.458465       1
       9918.7307       222.28165       10.940001       1
       9930.8783       179.84897       13.359336       1
       9943.0258       227.21560       10.903586       1
       9955.1734       214.90326       13.525587       1
       9967.3209       197.80470       10.735111       1
       9979.4685       88.446524       7898084.0       1
       9991.6160       232.21180       10.774167       1
       10003.764       215.56119       13.405446       1
       10015.911       253.20890       10.858808       1
       10028.059       204.29998       13.218317       1
       10040.206       222.76302       10.706165       1
       10052.354       226.94327       13.242531       1
       10064.501       221.62892       10.688525       1
       10076.649       182.87799       13.054523       1
       10088.796       235.60225       10.698996       1
       10100.944       209.65167       13.158147       1
       10113.092       209.57719       10.538147       1
       10125.239       193.39621       13.097066       1
       10137.387       218.15724       10.616569       1
       10149.534       160.87151       12.922259       1
       10161.682       231.47915       10.648753       1
       10173.829       191.63954       13.012764       1
       10185.977       208.70595       10.509831       1
       10198.124       176.89270       12.875918       1
       10210.272       227.25067       10.544861       1
       10222.420       186.49973       12.877281       1
       10234.567       206.02657       15.240773       1
       10246.715       221.69305       12.967792       1
       10258.862       237.32049       10.546734       1
       10271.010       201.33485       12.878737       1
       10283.157       224.80827       10.387256       1
       10295.305       218.13731       12.860659       1
       10307.452       234.65717       10.419002       1
       10319.600       252.13232       12.946021       1
       10331.747       232.37493       10.388984       1
       10343.895       258.78739       12.988048       1
       10356.043       262.57558       10.413240       1
       10368.190       259.40713       12.923716       1
       10380.338       279.89744       10.465695       1
       10392.485       197.17045       10.984091       1
       10404.633       256.27479       10.346761       1
       10416.780       239.99417       13.645369       1
       10428.928       256.97017       10.329824       1
       10441.075       276.92537       13.333093       1
       10453.223       287.45499       10.491196       1
       10465.371       312.73030       13.012282       1
       10477.518       319.20017       12.858502       1
       10489.666       304.47585       12.942102       1
       10501.813       294.15141       10.392124       1
       10513.961       152.98601       10.637552       1
       10526.108       255.47667       10.133995       1
       10538.256       229.23041       12.609622       1
       10550.403       226.55914       10.739590       1
       10562.551       216.24891       12.579366       1
       10574.699       231.07816       10.184274       1
       10586.846       212.27699       12.550971       1
       10598.994       219.37997       10.144891       1
       10611.141       239.27530       12.741846       1
       10623.289       248.09533       10.200483       1
       10635.436       249.62850       12.689417       1
       10647.584       231.54424       10.191887       1
       10659.731       222.35577       12.470067       1
       10671.879       223.67167       10.120158       1
       10684.027       230.78024       12.357006       1
       10696.174       241.93300       10.101718       1
       10708.322       203.39499       12.475366       1
       10720.469       215.63479       9.9389272       1
       10732.617       258.11141       12.479384       1
       10744.764       217.05945       9.9776961       1
       10756.912       224.32647       12.279594       1
       10769.059       188.63468       9.8182666       1
       10781.207       246.51596       12.405235       1
       10793.354       212.43364       9.8390338       1
       10805.502       222.32652       12.316730       1
       10817.650       208.56370       11.216452       1
       10829.797       212.99259       12.260301       1
       10841.945       198.65398       11.113207       1
       10854.092       221.15159       12.231820       1
       10866.240       212.70422       9.8562102       1
       10878.387       223.09723       12.301239       1
       10890.535       208.54875       9.8103677       1
       10902.682       230.96687       12.279041       1
       10914.830       223.14487       10.894406       1
       10926.978       245.21607       12.358392       1
       10939.125       214.46252       10.819527       1
       10951.273       234.66708       12.233620       1
       10963.420       215.79953       9.7656399       1
       10975.568       224.35084       12.175672       1
       10987.715       195.23198       9.7951653       1
       10999.863       210.47834       12.123659       1
       11012.010       228.72734       9.8144972       1
       11024.158       243.35231       12.282433       1
       11036.306       219.10308       9.8157421       1
       11048.453       205.77322       12.053897       1
       11060.601       228.41407       10.251398       1
       11072.748       211.98608       12.090138       1
       11084.896       240.15195       9.8676430       1
       11097.043       228.55402       12.229342       1
       11109.191       238.77541       9.8398296       1
       11121.338       106.14637       8.0963251       1
       11133.486       223.84613       9.7878141       1
       11145.633       231.97840       12.212622       1
       11157.781       217.97649       9.7515885       1
       11169.929       230.94375       12.127202       1
       11182.076       213.04642       9.7207921       1
       11194.224       238.74541       12.176042       1
       11206.371       224.66345       9.7770627       0
       11218.519       174.81412       10.687324       0
       11230.666       217.14675       9.7162275       0
       11242.814       227.09315       12.135206       0
       11254.961       216.36738       9.7517037       0
       11267.109       223.66740       12.178132       0
       11279.257       221.81164       9.7676119       0
       11291.404       208.43930       12.051585       0
       11303.552       207.26447       12.232277       0
       11315.699       219.41165       12.103094       0
       11327.847       205.49946       9.8127709       0
       11339.994       225.92880       12.143617       0
       11352.142       212.14997       9.7752119       0
       11364.289       226.55456       12.132101       0
       11376.437       211.40349       10.300989       0
       11388.585       212.91169       12.072040       0
       11400.732       213.66018       10.340942       0
       11412.880       205.09308       12.010750       0
       11425.027       207.42575       9.7641728       0
       11437.175       204.14871       12.154810       0
       11449.322       207.16703       9.9612555       0
       11461.470       181.42250       12.435004       0
       11473.617       195.45168       10.331423       0
       11485.765       163.26483       13.074984       0
       11497.913       202.00319       11.630825       0
       11510.060       166.12185       14.177427       0
       11522.208       170.20990       12.240124       0
       11534.355       139.17588       15.380204       0
       11546.503       168.65041       13.643828       0
       11558.650       141.72679       17.584132       0
       11570.798       158.52050       14.954975       0
       11582.945       165.17513       19.686713       0
       11595.093       186.50877       16.615781       0
       11607.240       155.63305       21.677704       0
       11619.388       107.09903       18.274327       0
       11631.536       134.71157       23.737937       0
       11643.683       138.21273       20.261586       0
       11655.831       152.50678       26.948932       0
       11667.978       100.84005       23.169507       0
       11680.126      -56.830902       31.278124       0
       11692.273       323.87679       28.450048       0
       11704.421       255.54568       38.798468       0
       11716.568      -90.800755       38.075042       0
       11728.716       65.756092       47.228245       0
       11740.864      -166.44082       41.413483       0
       11753.011      -534.10361       56.006949       0
       11765.159       587.03260       50.222146       0
       11777.306       354.89419       67.997863       0
       11789.454      -262.49845       67.568651       0
       11801.601      -904.06401       85.618301       0
       11813.749      -393.31783       77.296186       0
