#WAVELENGTH FLUX ERROR MASK
       10218.081       186.18159       178.58197       0
       10241.722       2592.2655       171.52093       0
       10265.362       1630.0875       153.84692       0
       10289.002      -585.75772       145.50215       0
       10312.642       2519.6666       134.54430       0
       10336.283      -501.67899       128.92205       0
       10359.923       422.12562       119.55615       0
       10383.563      -50.967791       117.53720       0
       10407.203       2382.3624       110.74084       0
       10430.844       517.76744       106.61951       0
       10454.484       777.21345       96.287686       0
       10478.124      -141.09569       89.945190       0
       10501.764       415.07168       80.678528       0
       10525.405       252.98178       76.537990       0
       10549.045       711.54146       69.035822       0
       10572.685       564.47664       66.004645       0
       10596.325       281.62896       60.469986       0
       10619.966       239.93807       59.171471       0
       10643.606       396.85900       54.723425       0
       10667.246       191.79951       52.594650       0
       10690.886       587.38806       48.610766       0
       10714.527       247.04904       45.378704       0
       10738.167       436.07733       40.814426       0
       10761.807       183.21099       37.651712       0
       10785.447       305.65081       33.836138       0
       10809.088       240.67949       32.033539       0
       10832.728       230.68828       28.993649       0
       10856.368       291.78424       28.575311       0
       10880.008       256.53489       26.295827       0
       10903.649       301.98183       26.193408       0
       10927.289       262.75972       24.453592       0
       10950.929       291.17303       24.496811       0
       10974.569       259.70002       22.920582       0
       10998.210       195.21177       19.926742       0
       11021.850       250.08563       21.483520       1
       11045.490       274.73019       21.676877       1
       11069.130       166.69972       17.417083       1
       11092.771       249.43796       20.338637       1
       11116.411       271.38166       19.694008       1
       11140.051       263.76204       19.900939       1
       11163.691       255.17049       19.127779       1
       11187.332       255.29943       19.479717       1
       11210.972       259.79322       18.825419       1
       11234.612       281.08935       19.436536       1
       11258.252       244.98066       18.523554       1
       11281.893       235.61654       18.950397       1
       11305.533       231.83687       18.201701       1
       11329.173       258.70368       19.013417       1
       11352.813       166.91107       15.679486       1
       11376.454       248.68030       18.686797       1
       11400.094       257.32026       18.116125       1
       11423.734       247.12379       18.529015       1
       11447.374       251.80852       18.001197       1
       11471.015       256.58596       18.555045       1
       11494.655       275.98712       18.137034       1
       11518.295       232.61749       18.327856       1
       11541.935       235.02172       17.807309       1
       11565.576       259.47881       18.422968       1
       11589.216       249.99605       17.796815       1
       11612.856       233.33176       18.218166       1
       11636.496       266.62549       17.779628       1
       11660.137       260.91799       18.267400       1
       11683.777       258.74348       17.607120       1
       11707.417       248.97585       18.005827       1
       11731.057       237.02191       17.310828       1
       11754.698       246.46011       17.774492       1
       11778.338       253.04773       17.292779       1
       11801.978       238.87783       17.670420       1
       11825.618       254.99566       5243212.1       1
       11849.259       242.24171       17.493233       1
       11872.899       223.67119       16.797031       1
       11896.539       231.05684       17.287285       1
       11920.179       250.01265       16.910753       1
       11943.820       243.02767       17.353034       1
       11967.460       260.01531       16.911934       1
       11991.100       242.44265       17.158261       1
       12014.740       81.057704       11.228945       1
       12038.381       237.24924       17.080974       1
       12062.021       254.46575       16.659492       1
       12085.661       254.94601       17.123098       1
       12109.301       258.64214       16.590083       1
       12132.942       223.17325       16.813472       1
       12156.582       263.24707       16.501553       1
       12180.222       223.20115       16.704231       1
       12203.862       242.39267       16.305377       1
       12227.503       242.98033       16.740533       1
       12251.143       249.54437       15.949181       1
       12274.783       233.36809       16.516151       1
       12298.423       233.38468       16.023670       1
       12322.064       230.59460       16.445367       1
       12345.704       230.64857       15.988690       1
       12369.344       229.15720       16.417256       1
       12392.984       245.88444       16.091332       1
       12416.625       228.67095       16.368450       1
       12440.265       263.68192       16.107992       1
       12463.905       230.34752       16.329270       1
       12487.545       230.69657       15.755450       1
       12511.186       232.01977       16.285153       1
       12534.826       238.70059       15.870570       1
       12558.466       222.53460       16.133230       1
       12582.106       258.51345       15.980845       1
       12605.747       88.265389       11.300334       1
       12629.387       241.93219       15.793426       1
       12653.027       260.86208       16.445286       1
       12676.667       253.04654       15.858842       1
       12700.308       243.62669       16.212821       1
       12723.948       234.16217       15.661970       1
       12747.588       206.62139       15.793153       1
       12771.228       228.94732       15.504936       1
       12794.869       216.23026       15.798904       1
       12818.509       220.89167       15.373821       1
       12842.149       233.85167       15.930787       1
       12865.789       251.40276       15.628000       1
       12889.429       94.698944       11.208745       1
       12913.070       238.03374       15.476818       1
       12936.710       245.20137       15.877202       1
       12960.350       235.33820       15.290389       1
       12983.990       217.54992       15.600696       1
       13007.631       239.64335       15.319879       1
       13031.271       222.80596       15.560152       1
       13054.911       228.23087       15.038164       1
       13078.551       226.81845       15.537152       1
       13102.192       253.91688       15.139614       1
       13125.832       248.43528       15.732634       1
       13149.472       268.83479       15.364985       1
       13173.112       227.51632       15.482784       1
       13196.753       241.95460       15.030778       1
       13220.393       224.12655       15.307283       1
       13244.033       246.00319       15.080156       1
       13267.673       244.54622       15.397431       1
       13291.314       253.98348       15.016594       1
       13314.954       246.36079       15.382596       1
       13338.594       268.63839       15.146268       1
       13362.234       240.63811       15.355440       1
       13385.875       254.73279       14.999034       1
       13409.515       252.05685       15.469570       1
       13433.155       264.13281       14.984673       1
       13456.795       234.39130       15.154617       1
       13480.436       266.15795       14.951304       1
       13504.076       249.65940       15.183060       1
       13527.716       262.78586       14.894369       1
       13551.356       246.79729       15.148532       1
       13574.997       183.38888       12.915559       1
       13598.637       253.89696       15.187138       1
       13622.277       265.02154       14.798338       1
       13645.917       279.34921       15.416464       1
       13669.558       279.56570       14.905320       1
       13693.198       307.40952       15.605264       1
       13716.838       305.61180       15.127366       1
       13740.478       298.24322       15.533088       1
       13764.119       286.95184       14.948168       1
       13787.759       268.37461       15.300624       1
       13811.399       266.97659       14.751040       1
       13835.039       259.24199       15.214330       1
       13858.680       254.43887       14.688726       1
       13882.320       252.65181       15.170471       1
       13905.960       257.18434       14.662039       1
       13929.600       249.00147       15.036721       1
       13953.241       263.53789       14.698703       1
       13976.881       258.44628       15.095501       1
       14000.521       276.69099       14.771481       1
       14024.161       272.41798       15.158979       1
       14047.802       251.96783       14.512099       1
       14071.442       254.97622       14.958811       1
       14095.082       254.53422       14.445799       1
       14118.722       194.22166       12.923147       1
       14142.363       242.30253       14.370650       1
       14166.003       246.54393       14.807970       1
       14189.643       260.64636       13.449556       1
       14213.283       225.64665       14.626874       1
       14236.924       238.01825       14.232422       1
       14260.564       227.42989       14.571987       1
       14284.204       218.52465       14.023529       1
       14307.844       227.23343       14.540919       1
       14331.485       226.91273       14.034427       1
       14355.125       213.03740       14.384682       1
       14378.765       219.21392       13.994294       1
       14402.405       225.99236       4166757.4       1
       14426.046       232.09756       14.070922       1
       14449.686       218.56038       14.315048       1
       14473.326       222.81302       13.986310       1
       14496.966       228.69486       14.470383       1
       14520.607       226.28937       14.041482       1
       14544.247       222.50560       14.287483       1
       14567.887       207.16844       13.846185       1
       14591.527       233.36644       14.492812       1
       14615.168       219.27613       13.958031       1
       14638.808       221.86182       14.396824       1
       14662.448       213.21297       13.880426       1
       14686.088       221.10754       14.448098       1
       14709.729       64.007176       9.5687176       1
       14733.369       201.73961       14.235971       1
       14757.009       199.40550       13.765630       1
       14780.649       190.68032       14.191832       1
       14804.290       201.16448       13.822865       1
       14827.930       185.53501       14.128368       1
       14851.570       198.89250       13.797683       1
       14875.210       201.69045       14.250105       1
       14898.851       195.13641       13.732882       1
       14922.491       204.91554       14.233769       1
       14946.131       178.45401       13.504808       1
       14969.771       204.06124       14.191483       1
       14993.412       172.92037       13.380849       1
       15017.052       85.405547       9.9005988       1
       15040.692       192.90089       13.590617       1
       15064.332       211.68491       14.231292       1
       15087.973       189.85064       13.560648       1
       15111.613       197.17611       14.076361       1
       15135.253       177.30992       13.503824       1
       15158.893       210.10744       14.188373       1
       15182.534       182.21160       13.491852       1
       15206.174       198.17567       14.041892       1
       15229.814       196.94056       13.605988       1
       15253.454       201.34619       14.066827       1
       15277.095       212.88952       13.774578       1
       15300.735       207.27134       14.120375       1
       15324.375       202.72987       13.646918       1
       15348.015       203.91165       14.081315       1
       15371.656       191.31912       13.538352       1
       15395.296       210.00506       14.176848       1
       15418.936       187.15859       13.513673       1
       15442.576       203.52806       14.078009       1
       15466.217       190.46439       13.519582       1
       15489.857       196.00878       14.021507       1
       15513.497       190.04901       13.578494       1
       15537.137       211.66054       14.208645       1
       15560.778       194.02535       13.548047       1
       15584.418       210.98030       14.138848       1
       15608.058       205.80545       13.587501       1
       15631.698       199.11754       14.124460       1
       15655.339       196.95420       13.654411       1
       15678.979       206.90756       14.174138       1
       15702.619       191.79456       13.539513       1
       15726.259       213.98805       14.154713       1
       15749.899       205.63781       13.661447       1
       15773.540       197.79508       14.027879       1
       15797.180       200.64164       13.628915       1
       15820.820       197.94960       13.946808       1
       15844.460       200.60916       13.569163       1
       15868.101       212.95474       14.142568       1
       15891.741       197.09727       13.581053       1
       15915.381       213.55158       14.197398       1
       15939.021       199.58369       13.657880       1
       15962.662       188.30300       13.918877       1
       15986.302       191.61977       13.539086       1
       16009.942       193.93173       13.931617       1
       16033.582       198.97976       13.659358       1
       16057.223       199.66835       14.025706       1
       16080.863       188.93793       13.583481       1
       16104.503       191.83947       13.920320       1
       16128.143       184.91621       13.539239       1
       16151.784       197.29812       14.040061       1
       16175.424       204.24703       13.699146       1
       16199.064       189.70062       14.034622       1
       16222.704       192.74096       13.689525       1
       16246.345       195.29169       14.136358       1
       16269.985       181.00612       13.605674       1
       16293.625       202.25178       14.266922       1
       16317.265       190.57023       13.694931       1
       16340.906       200.94142       14.215797       1
       16364.546       201.65698       13.814034       1
       16388.186       205.41873       14.306709       1
       16411.826       181.10882       13.674269       1
       16435.467       194.15958       14.221020       1
       16459.107       177.52864       13.684728       1
       16482.747       184.04859       14.197429       1
       16506.387       174.36211       13.711067       1
       16530.028       200.26700       14.544901       1
       16553.668       188.74112       14.106763       1
       16577.308       185.19395       14.716057       1
       16600.948       182.94571       14.512957       1
       16624.589       178.24310       15.229501       1
       16648.229       177.62935       15.225324       1
       16671.869       188.24525       16.356700       1
       16695.509       197.91363       16.469948       1
       16719.150       175.24555       17.600049       1
       16742.790       165.68213       17.815386       1
       16766.430       196.38602       19.686336       0
       16790.070       189.68700       20.188166       0
       16813.711       195.38205       22.112745       0
       16837.351       170.45733       22.667880       0
       16860.991       208.10068       24.883767       0
       16884.631       214.71416       25.657727       0
       16908.272       140.88649       24.294055       0
       16931.912       214.48318       28.605198       0
       16955.552       165.83323       30.883627       0
       16979.192       56.602930       23.050789       0
       17002.833       243.00223       34.600156       0
       17026.473       199.57163       35.308974       0
       17050.113       262.71449       38.699184       0
       17073.753       248.17338       39.314227       0
       17097.394       255.80298       42.697310       0
       17121.034       123.28796       43.131698       0
       17144.674       308.81223       47.896940       0
       17168.314       192.64171       48.982040       0
       17191.955       109.60659       54.772406       0
       17215.595       376.94017       57.555271       0
       17239.235       252.71078       63.138590       0
       17262.875       323.13902       65.277026       0
       17286.516       100.62776       70.961940       0
       17310.156      -57.454330       72.098066       0
       17333.796      -446.76706       77.646375       0
       17357.436       121.66922       79.779299       0
       17381.077       582.02184       87.716273       0
       17404.717       248.88722       89.565787       0
       17428.357       486.51451       97.815822       0
       17451.997       701.21121       97.964516       0
       17475.638       1286.4525       107.44999       0
       17499.278      -151.29636       109.08876       0
       17522.918       673.27148       125.18224       0
       17546.558       2322.4143       138.01781       0
       17570.199       1439.1061       164.54034       0
