#WAVELENGTH FLUX ERROR MASK
       7504.4663      -8580.5176       390.39077       0
       7516.6596       17509.754       295.89285       0
       7528.8529      -1562.2073       331.56623       0
       7541.0462       11048.279       248.51503       0
       7553.2394       8311.6260       271.63657       0
       7565.4327       5538.4932       195.98297       0
       7577.6260       8052.8692       215.55815       0
       7589.8193      -1077.5995       155.38000       0
       7602.0126       9565.4229       177.64753       0
       7614.2059       4595.1927       131.67185       0
       7626.3992       328.53347       147.97975       0
       7638.5924      -519.41302       111.30949       0
       7650.7857       2142.6014       127.90822       0
       7662.9790       2485.3420       96.806910       0
       7675.1723       1050.7671       108.14620       0
       7687.3656       739.21019       80.388419       0
       7699.5589       2429.1742       91.610959       0
       7711.7522       1633.5398       68.403769       0
       7723.9454       592.13528       77.809496       0
       7736.1387       891.56769       60.656232       0
       7748.3320       1474.5298       70.428384       0
       7760.5253       905.35895       54.484858       0
       7772.7186       1194.4488       64.362687       0
       7784.9119       939.16312       49.418721       0
       7797.1052       616.93223       57.704810       0
       7809.2984       681.16670       44.916344       0
       7821.4917       677.32841       51.812740       0
       7833.6850       426.87931       39.767336       0
       7845.8783       561.06615       45.646009       0
       7858.0716       286.35346       35.740789       0
       7870.2649       334.78213       41.627963       0
       7882.4582       265.39976       32.676297       0
       7894.6514       480.04566       38.771121       0
       7906.8447       122.03332       30.175556       0
       7919.0380       283.47630       35.985650       0
       7931.2313       308.16576       28.766973       0
       7943.4246      -182.53163       33.237578       0
       7955.6179       326.46621       27.479765       0
       7967.8112       98.174298       32.432348       0
       7980.0044       208.83150       26.088795       0
       7992.1977       274.60840       31.030034       0
       8004.3910       109.23761       24.961888       0
       8016.5843       275.22334       30.448733       0
       8028.7776       244.93085       24.491627       0
       8040.9709       204.53393       29.553503       0
       8053.1642       143.54150       23.742542       0
       8065.3574       254.10659       29.147195       0
       8077.5507       267.38082       23.530652       0
       8089.7440       142.68680       28.211243       0
       8101.9373       191.37156       32.546638       0
       8114.1306       217.29359       28.175616       0
       8126.3239       222.98625       22.673152       0
       8138.5172       116.71817       27.478084       0
       8150.7105       265.64012       31.561515       1
       8162.9037       137.88055       27.004384       1
       8175.0970       149.96411       21.824041       1
       8187.2903       157.08473       26.483588       1
       8199.4836       47.402083       21.264833       1
       8211.6769       152.03652       26.013816       1
       8223.8702       84.916965       20.871979       1
       8236.0635       40.397197       25.190675       1
       8248.2567       144.23900       20.480505       1
       8260.4500       208.81171       25.057249       1
       8272.6433       78.715014       19.874459       1
       8284.8366       207.56634       24.444592       1
       8297.0299       176.15380       17.218310       1
       8309.2232       138.55093       21.399778       1
       8321.4165       143.15148       16.752191       1
       8333.6097       147.42468       21.026147       1
       8345.8030       59.648341       18.402317       1
       8357.9963       131.03640       20.706717       1
       8370.1896       148.10966       16.264391       1
       8382.3829       143.44521       20.780429       1
       8394.5762       98.261528       16.014772       1
       8406.7695       134.81602       20.255057       1
       8418.9627       143.64751       15.892899       1
       8431.1560       149.28769       19.998752       1
       8443.3493       22.281913       15.430483       1
       8455.5426       133.69073       19.587300       1
       8467.7359       98.691796       15.358411       1
       8479.9292       188.57268       19.459951       1
       8492.1225       203.37904       15.403980       1
       8504.3157       169.18000       19.251873       1
       8516.5090       130.07916       15.006210       1
       8528.7023       118.26889       18.974583       1
       8540.8956       161.63052       15.060054       1
       8553.0889       165.05455       18.859202       1
       8565.2822       223.31337       15.082251       1
       8577.4755       145.99577       18.838008       1
       8589.6687       181.07504       14.965926       1
       8601.8620       135.70661       18.702118       1
       8614.0553       147.04493       14.874757       1
       8626.2486       136.76435       18.596439       1
       8638.4419       180.07515       14.771739       1
       8650.6352       141.90555       18.619617       1
       8662.8285       152.46794       14.694981       1
       8675.0217       179.94150       18.490948       1
       8687.2150       120.80536       14.369320       1
       8699.4083       187.08285       18.225506       1
       8711.6016       176.17858       14.238154       1
       8723.7949       139.51782       17.836764       1
       8735.9882       204.36771       14.126273       1
       8748.1815       193.62432       17.545022       1
       8760.3747       194.86885       13.897359       1
       8772.5680       144.34389       17.179879       1
       8784.7613       177.70857       13.754966       1
       8796.9546       205.61212       17.201510       1
       8809.1479       176.93461       13.665826       1
       8821.3412       222.92315       17.189039       1
       8833.5345       207.61811       13.582292       1
       8845.7277       228.53906       17.095632       1
       8857.9210       220.33908       13.522832       1
       8870.1143       194.87292       16.870375       1
       8882.3076       200.74437       13.297833       1
       8894.5009       186.28828       16.747098       1
       8906.6942       220.92701       13.314438       1
       8918.8875       175.04581       16.609061       1
       8931.0807       204.08615       13.184556       1
       8943.2740       208.34286       16.597469       1
       8955.4673       209.72083       13.067427       1
       8967.6606       209.99992       16.462459       1
       8979.8539       187.08448       12.921987       1
       8992.0472       179.36170       16.952061       1
       9004.2405       213.08676       12.813840       1
       9016.4337       216.79324       16.072372       1
       9028.6270       231.56109       12.872174       1
       9040.8203       216.50537       16.174337       1
       9053.0136       222.22556       12.787785       1
       9065.2069       219.17039       16.113037       1
       9077.4002       176.03733       12.634259       1
       9089.5935       213.56205       16.134960       1
       9101.7868       234.05099       12.710381       1
       9113.9800       268.03014       16.096907       1
       9126.1733       241.85369       12.599028       1
       9138.3666       267.57149       15.999921       1
       9150.5599       170.90126       17.201349       1
       9162.7532       257.49050       15.711286       1
       9174.9465       231.86057       12.358388       1
       9187.1398       268.87413       15.759924       1
       9199.3330       263.68398       12.298467       1
       9211.5263       261.35915       15.562569       1
       9223.7196       263.39517       12.292269       1
       9235.9129       259.25532       17.220931       1
       9248.1062       249.32158       13.882370       1
       9260.2995       14.234262       12.109477       1
       9272.4928       222.28771       13.741349       1
       9284.6860       300.29278       16.988304       1
       9296.8793       255.49568       15.318134       1
       9309.0726       242.19394       16.626378       1
       9321.2659       254.06812       19.266670       1
       9333.4592       187.79641       16.535900       1
       9345.6525       264.05392       13.833758       1
       9357.8458       230.50911       16.544989       1
       9370.0390       205.88910       13.732473       1
       9382.2323       226.94208       16.504680       1
       9394.4256       194.24111       13.312711       1
       9406.6189       234.46366       16.452195       1
       9418.8122       259.87284       13.489713       1
       9431.0055       295.52782       16.602423       1
       9443.1988       292.15764       14.001696       1
       9455.3920       263.49780       16.402105       1
       9467.5853       294.18934       14.105462       1
       9479.7786       296.52038       16.458066       1
       9491.9719       313.49822       13.451565       1
       9504.1652       292.32179       16.327248       1
       9516.3585       266.44398       13.247937       1
       9528.5518       285.51610       16.205983       1
       9540.7450       279.26571       13.104022       1
       9552.9383       294.10332       16.237741       1
       9565.1316       258.75035       14.653270       1
       9577.3249       38.115162       11.507572       1
       9589.5182       269.20582       13.076359       1
       9601.7115       318.84444       16.113497       1
       9613.9048       259.12378       12.958489       1
       9626.0980       278.36425       15.904421       1
       9638.2913       268.70676       12.936970       1
       9650.4846       286.60054       8085560.8       1
       9662.6779       276.45115       12.910675       1
       9674.8712       252.60415       15.689805       1
       9687.0645       252.68134       12.802579       1
       9699.2578       282.06018       15.646422       1
       9711.4510       261.37022       12.733467       1
       9723.6443       259.32682       15.536142       1
       9735.8376       280.27593       12.672737       1
       9748.0309       266.98628       15.518006       1
       9760.2242       282.57460       13.157486       1
       9772.4175       296.49295       15.226524       1
       9784.6108       256.67237       12.584991       1
       9796.8040       301.57344       14.975416       1
       9808.9973       312.77077       12.718098       1
       9821.1906       307.01331       15.332956       1
       9833.3839       265.98327       12.510198       1
       9845.5772       308.14082       15.017409       1
       9857.7705       290.30604       12.621565       1
       9869.9638       277.53729       15.033256       1
       9882.1570       305.63342       12.623747       1
       9894.3503       305.25749       15.042340       1
       9906.5436       297.58551       12.567716       1
       9918.7369       348.11435       15.049793       1
       9930.9302       311.99924       12.446678       1
       9943.1235       318.49815       15.119664       1
       9955.3168       306.55923       12.842767       1
       9967.5101       279.32890       15.048523       1
       9979.7033       293.81062       12.354997       1
       9991.8966       309.26547       14.928273       1
       10004.090       329.63817       12.455026       1
       10016.283       277.75472       14.838360       1
       10028.476       280.18067       12.130724       1
       10040.670       324.90484       15.037965       1
       10052.863       314.15112       12.273164       1
       10065.056       54.513041       10.645403       1
       10077.250       298.90747       12.244128       1
       10089.443       282.15348       14.854880       1
       10101.636       299.50137       12.226395       1
       10113.829       317.37858       15.084339       1
       10126.023       312.98419       12.185778       1
       10138.216       318.04797       14.987052       1
       10150.409       312.49998       12.525361       1
       10162.603       296.14802       13.176111       1
       10174.796       304.97939       10.629738       1
       10186.989       253.72739       13.100592       1
       10199.182       272.27318       10.500499       1
       10211.376       264.38604       13.214990       1
       10223.569       285.18738       10.505310       1
       10235.762       287.90114       13.251696       1
       10247.956       266.19984       10.393352       1
       10260.149       303.42259       13.251018       1
       10272.342       289.03941       10.371949       1
       10284.535       263.47815       13.102155       1
       10296.729       287.32713       10.365509       1
       10308.922       278.84499       13.100202       1
       10321.115       295.88078       10.338876       1
       10333.309       314.63866       13.180838       1
       10345.502       319.41208       10.380869       1
       10357.695       317.80184       13.172950       1
       10369.888       299.29511       10.310841       1
       10382.082       320.82573       13.141326       1
       10394.275       292.87852       10.148303       1
       10406.468       311.30683       13.120697       1
       10418.662       303.82683       10.202980       1
       10430.855       324.11128       13.036156       1
       10443.048       327.01737       10.153461       1
       10455.241       294.31237       12.904369       1
       10467.435       320.71163       10.184496       1
       10479.628       318.68164       12.983544       1
       10491.821       307.44839       9.9059918       1
       10504.015       339.44096       13.150417       1
       10516.208       341.88004       10.021879       1
       10528.401       334.47220       13.066636       1
       10540.594       333.01600       10.173491       1
       10552.788       326.74734       12.983057       1
       10564.981       333.67738       10.278957       1
       10577.174       338.82548       13.103705       1
       10589.368       323.33370       10.142573       1
       10601.561       345.46084       13.271317       1
       10613.754       323.13854       10.273327       1
       10625.947       369.60733       13.236901       1
       10638.141       335.71331       10.284805       1
       10650.334       356.11680       12.950990       1
       10662.527       308.47917       10.055113       1
       10674.721       356.12725       12.838630       1
       10686.914       325.11296       10.115246       1
       10699.107       327.44829       12.805582       1
       10711.300       323.90533       10.116832       1
       10723.494       346.29211       12.854783       1
       10735.687       320.41551       10.096784       1
       10747.880       310.25672       12.675927       1
       10760.074       332.94343       10.099626       1
       10772.267       351.19669       12.756077       1
       10784.460       343.12813       10.091438       1
       10796.653       343.60673       12.758268       1
       10808.847       335.33014       10.034304       1
       10821.040       346.20396       12.693682       1
       10833.233       348.20434       10.079654       1
       10845.427       301.38688       12.554472       1
       10857.620       332.69214       10.009042       1
       10869.813       335.22769       12.670535       1
       10882.006       344.49301       10.038394       1
       10894.200       329.22498       12.561018       1
       10906.393       372.19389       10.083055       1
       10918.586       342.10109       12.632679       1
       10930.780       333.52175       9.8825479       1
       10942.973       322.11304       12.785495       1
       10955.166       350.33016       10.009723       1
       10967.359       341.98655       12.650894       1
       10979.553       335.05829       9.9834508       1
       10991.746       369.69769       12.682514       1
       11003.939       337.62386       9.9544662       1
       11016.133       331.43600       12.175667       1
       11028.326       340.22572       9.9931823       1
       11040.519       362.96668       12.573229       1
       11052.712       328.26662       9.8589330       1
       11064.906       325.72049       12.398901       1
       11077.099       331.53988       9.8588429       1
       11089.292       359.49275       12.486782       1
       11101.486       303.59553       11.018747       1
       11113.679       307.66758       14.348537       1
       11125.872       309.80055       11.051379       1
       11138.065       295.97839       14.267303       1
       11150.259       312.80416       11.063504       1
       11162.452       359.24202       13.633692       1
       11174.645       314.16313       11.007243       1
       11186.839       328.88854       14.395534       1
       11199.032       294.12958       10.829352       1
       11211.225       316.93547       14.210406       0
       11223.418       300.76464       10.895095       0
       11235.612       339.17227       13.495706       0
       11247.805       294.96294       10.873962       0
       11259.998       302.35203       12.903351       0
       11272.192       309.19483       10.879213       0
       11284.385       312.10991       13.297270       0
       11296.578       275.65183       10.750157       0
       11308.771       259.69249       13.043638       0
       11320.965       291.74781       10.856200       0
       11333.158       285.89268       13.291170       0
       11345.351       294.48965       10.989468       0
       11357.545       308.32157       13.756587       0
       11369.738       295.23127       11.356725       0
       11381.931       318.89615       14.373148       0
       11394.125       301.67726       12.044604       0
       11406.318       306.20598       15.393396       0
       11418.511       329.54534       13.208487       0
       11430.704       326.71187       17.017010       0
       11442.898       329.74251       14.664298       0
       11455.091       412.95052       19.224239       0
       11467.284       373.14005       24.793305       0
       11479.478       401.08397       21.518813       0
       11491.671       410.91584       18.456723       0
       11503.864       439.11206       23.644966       0
       11516.057       401.71683       20.158430       0
       11528.251       342.95456       25.886360       0
       11540.444       318.61170       22.412281       0
       11552.637       335.91626       29.495389       0
       11564.831       417.56405       26.245125       0
       11577.024       259.10167       34.859703       0
       11589.217       589.87231       31.964584       0
       11601.410       618.91102       43.213877       0
       11613.604       986.91660       39.738080       0
       11625.797       798.37434       53.411669       0
       11637.990       1272.9479       48.313262       0
       11650.184       958.62886       64.220511       0
       11662.377       1249.9117       58.044312       0
       11674.570       697.04503       78.824863       0
       11686.763       1588.4041       73.710816       0
       11698.957       2208.7638       102.54105       0
       11711.150       4767.0452       96.563834       0
       11723.343       6623.6230       136.26880       0
       11735.537       7460.7657       130.29492       0
       11747.730       18695.289       171.02473       0
       11759.923       8895.0655       139.26840       0
       11772.116       10974.258       172.43188       0
       11784.310       5429.1173       136.95293       0
       11796.503       6973.8111       176.51614       0
       11808.696       941.76558       134.31103       0
       11820.890       4475.3071       180.37371       0
       11833.083       5533.5413       144.54021       0
       11845.276       347.47551       186.32175       0
       11857.469       10098.119       173.26949       0
       11869.663       7787.2245       223.03729       0
       11881.856       5465.2795       204.43687       0
