#WAVELENGTH FLUX ERROR MASK
       10205.507      -4245.3847       193.96632       0
       10228.528       936.78660       182.26287       0
       10251.550       2562.7876       172.23271       0
       10274.571       598.78596       156.69746       0
       10297.593       454.98180       148.15891       0
       10320.614      -7027.7066       98.129066       0
       10343.636       880.91799       131.39623       0
       10366.658       604.65716       125.19757       0
       10389.679       279.68549       120.17945       0
       10412.701       1354.0562       114.94292       0
       10435.722       174.00375       108.51685       0
       10458.744       161.08089       44516334.       0
       10481.765       1143.0203       94.469294       0
       10504.787       131.28199       84.733250       0
       10527.808       1016.2198       79.822518       0
       10550.830       647.75073       73.509116       0
       10573.852       1332.5689       70.461678       0
       10596.873       728.09367       65.038995       0
       10619.895       645.16605       62.086554       0
       10642.916       297.99639       57.483950       0
       10665.938       495.23701       56.089136       0
       10688.959       570.08484       52.615661       0
       10711.981       555.82709       48.809076       0
       10735.002       378.90189       44.061643       0
       10758.024       495.27440       41.006831       0
       10781.045       419.31125       37.201337       0
       10804.067       394.23742       34.419129       0
       10827.089       374.56557       32.196969       0
       10850.110       473.88320       30.758311       0
       10873.132       304.02195       28.797286       0
       10896.153       286.47157       27.625281       0
       10919.175       297.53657       26.635354       0
       10942.196       280.15431       25.072976       0
       10965.218      -69.570889       17.224278       0
       10988.239       285.11534       24.279034       0
       11011.261       353.59242       23.573216       1
       11034.283       299.27582       22.840293       1
       11057.304       292.90210       22.217029       1
       11080.326       312.04899       21.829941       1
       11103.347       318.67361       21.322860       1
       11126.369       327.97898       21.326727       1
       11149.390       316.27052       20.771222       1
       11172.412       325.60525       20.814657       1
       11195.433       322.77398       20.757195       1
       11218.455       315.28391       20.473360       1
       11241.476       330.00874       20.425928       1
       11264.498       298.29514       19.978301       1
       11287.520       309.72085       20.160617       1
       11310.541       330.55821       20.323533       1
       11333.563       311.27013       20.041727       1
       11356.584       335.14627       20.031417       1
       11379.606       313.97005       19.798935       1
       11402.627       315.32069       19.835879       1
       11425.649       300.99840       19.468760       1
       11448.670       312.30445       19.627939       1
       11471.692       319.72693       19.604607       1
       11494.714       320.66540       19.625499       1
       11517.735       325.48081       19.555157       1
       11540.757       348.32718       19.736598       1
       11563.778       312.88848       19.186678       1
       11586.800       361.38490       19.757025       1
       11609.821       324.50482       19.433561       1
       11632.843       300.79987       19.156269       1
       11655.864       295.47487       18.946938       1
       11678.886       337.89355       19.357063       1
       11701.907       24.528471       13.474928       1
       11724.929       334.56981       19.065573       1
       11747.951       340.47463       18.757493       1
       11770.972       343.34384       19.047888       1
       11793.994       356.45118       19.169737       1
       11817.015       335.01721       19.002470       1
       11840.037       319.33382       18.664405       1
       11863.058       346.39565       18.820347       1
       11886.080       379.53136       19.303390       1
       11909.101       344.84711       18.729429       1
       11932.123       330.79996       18.475607       1
       11955.145       341.06602       18.486576       1
       11978.166       322.41089       18.405169       1
       12001.188       320.05450       18.533007       1
       12024.209       334.52121       18.510789       1
       12047.231       314.99235       18.188172       1
       12070.252       307.65400       18.278841       1
       12093.274       28.776873       12.712161       1
       12116.295       313.66466       18.222505       1
       12139.317       296.79935       17.801873       1
       12162.338       322.48557       17.952588       1
       12185.360       315.87581       18.008422       1
       12208.382       278.32103       17.648536       1
       12231.403       317.26379       18.030249       1
       12254.425       314.37158       18.000943       1
       12277.446       341.71695       18.254023       1
       12300.468       283.72088       17.552066       1
       12323.489       307.94349       17.747029       1
       12346.511       324.42734       17.913683       1
       12369.532       293.78029       17.672303       1
       12392.554       313.17075       17.814360       1
       12415.576       308.68920       17.980932       1
       12438.597       311.77660       17.913228       1
       12461.619       304.45170       17.539456       1
       12484.640       301.49420       17.534329       1
       12507.662       305.08421       17.587527       1
       12530.683       281.38737       16.611393       1
       12553.705       294.83740       15.782748       1
       12576.726       291.58034       16.649607       1
       12599.748       300.21933       15.786597       1
       12622.769       286.57695       16.489474       1
       12645.791       299.35860       15.708408       1
       12668.813       299.53892       16.554913       1
       12691.834       39.572867       11.187202       1
       12714.856       295.72998       16.496179       1
       12737.877       306.64830       15.495011       1
       12760.899       303.67882       16.494939       1
       12783.920       270.31102       15.214727       1
       12806.942       295.75896       16.273539       1
       12829.963       293.25619       15.219552       1
       12852.985       282.38964       16.102533       1
       12876.007       272.57656       15.232455       1
       12899.028       280.74653       16.169868       1
       12922.050       28.760943       10.672985       1
       12945.071       319.96740       16.364227       1
       12968.093       300.46807       15.162873       1
       12991.114       319.56700       16.193125       1
       13014.136       299.46986       15.237166       1
       13037.157       295.46493       15.947041       1
       13060.179       302.41801       15.151046       1
       13083.201       298.90787       15.920417       1
       13106.222       277.73113       14.920002       1
       13129.244       300.81830       15.914679       1
       13152.265       278.01244       14.952099       1
       13175.287       307.56974       15.872412       1
       13198.308       270.49305       14.767214       1
       13221.330       273.48550       15.519595       1
       13244.351       294.84341       14.837448       1
       13267.373       284.65991       15.571701       1
       13290.394       283.44737       14.697444       1
       13313.416       285.04259       15.507480       1
       13336.438       290.84899       14.759058       1
       13359.459       289.48083       15.572233       1
       13382.481       281.29519       14.707019       1
       13405.502       281.93418       15.480855       1
       13428.524       280.13470       14.631787       1
       13451.545       296.29205       15.441287       1
       13474.567       298.66296       14.670458       1
       13497.588       298.58770       15.453094       1
       13520.610       304.06964       14.757702       1
       13543.632       283.05006       15.404897       1
       13566.653       276.74504       14.466870       1
       13589.675       64.424114       10.936497       1
       13612.696       306.56835       14.511235       1
       13635.718       297.05753       15.272019       1
       13658.739       299.78355       14.560367       1
       13681.761       289.37400       15.273434       1
       13704.782       301.77632       14.660692       1
       13727.804       301.89291       15.474781       1
       13750.825       307.81963       14.676059       1
       13773.847       285.31839       15.277798       1
       13796.869       274.13873       14.385150       1
       13819.890       293.95080       15.226456       1
       13842.912       289.26406       14.508665       1
       13865.933       298.67304       15.369517       1
       13888.955       293.46858       14.549053       1
       13911.976       292.66574       15.341594       1
       13934.998       277.85483       14.331319       1
       13958.019       271.56832       15.019675       1
       13981.041       282.62321       14.358626       1
       14004.063       279.01986       15.087140       1
       14027.084       286.45292       14.363251       1
       14050.106       269.97179       14.945318       1
       14073.127       250.39417       14.036568       1
       14096.149       277.92382       15.024715       1
       14119.170       287.71699       14.244084       1
       14142.192       55.680994       10.624782       1
       14165.213       292.69965       14.304483       1
       14188.235       267.34483       14.861350       1
       14211.256       296.85696       14.245700       1
       14234.278       279.19979       14.846277       1
       14257.300       290.95208       14.189235       1
       14280.321       285.04966       14.806970       1
       14303.343       283.31325       14.071456       1
       14326.364       268.42703       14.588282       1
       14349.386       267.71328       13.909748       1
       14372.407       270.13591       14.645152       1
       14395.429       279.34353       13.978390       1
       14418.450       282.00611       14.811456       1
       14441.472       282.81978       13.959673       1
       14464.494       258.17241       14.598076       1
       14487.515       273.47873       13.883576       1
       14510.537       269.35771       14.623834       1
       14533.558       278.53269       13.922671       1
       14556.580       258.57010       14.553649       1
       14579.601       264.22485       13.725622       1
       14602.623       265.99226       14.620270       1
       14625.644       275.11641       13.827624       1
       14648.666       276.33656       14.565747       1
       14671.687       272.12677       13.820354       1
       14694.709       262.73883       14.584355       1
       14717.731       274.40800       13.897899       1
       14740.752       252.11592       14.512568       1
       14763.774       272.03267       13.828493       1
       14786.795       258.75373       14.515545       1
       14809.817       285.01390       13.944953       1
       14832.838       285.00096       14.618025       1
       14855.860       278.88633       13.821949       1
       14878.881       293.66848       14.709963       1
       14901.903       282.28179       13.831252       1
       14924.925       276.35725       14.415793       1
       14947.946       296.31349       13.743367       1
       14970.968       273.92166       14.266055       1
       14993.989       275.81596       13.698879       1
       15017.011       265.09465       14.085599       1
       15040.032       261.96175       13.486188       1
       15063.054       270.28413       15.149034       1
       15086.075       265.48166       15.146516       1
       15109.097       247.30285       14.935069       1
       15132.118       248.98004       14.940249       1
       15155.140       247.68704       14.912918       1
       15178.162       246.93614       14.881978       1
       15201.183       245.24040       14.975348       1
       15224.205       236.04505       14.817494       1
       15247.226       270.44383       15.095633       1
       15270.248       258.04263       14.974526       1
       15293.269       245.71863       14.747386       1
       15316.291       48.472280       10.297456       1
       15339.312       250.67307       14.912560       1
       15362.334       246.66042       5614861.5       1
       15385.356       250.61641       14.859994       1
       15408.377       257.93258       16.212787       1
       15431.399       254.73000       14.880610       1
       15454.420       280.20041       15.095894       1
       15477.442       280.37389       15.094217       1
       15500.463       253.89688       14.818951       1
       15523.485       272.76335       15.072566       1
       15546.506       267.51990       14.987901       1
       15569.528       294.24973       14.999540       1
       15592.549       283.14818       15.142463       1
       15615.571       258.31842       14.637614       1
       15638.593       263.96407       14.928406       1
       15661.614       252.82672       14.372740       1
       15684.636       266.60961       14.926713       1
       15707.657       274.65135       14.386521       1
       15730.679       250.88336       14.687521       1
       15753.700       237.08782       14.092578       1
       15776.722       259.57996       14.750576       1
       15799.743       259.38232       13.984363       1
       15822.765       251.43092       14.667875       1
       15845.787       273.85192       13.940775       1
       15868.808       249.97518       14.377997       1
       15891.830       248.05612       14.016925       1
       15914.851       256.14891       14.479397       1
       15937.873       264.27264       14.265708       1
       15960.894       246.92009       14.529563       1
       15983.916       228.69850       13.947784       1
       16006.937       287.57119       14.681055       1
       16029.959       265.20595       14.243470       1
       16052.981       254.53207       14.211967       1
       16076.002       258.81169       14.068054       1
       16099.024       252.83026       14.065758       1
       16122.045       242.89265       13.944945       1
       16145.067       239.01622       13.931814       1
       16168.088       252.81050       14.033604       1
       16191.110       262.73001       14.157046       1
       16214.131       264.29585       14.143064       1
       16237.153       247.03267       14.049751       1
       16260.174       251.12280       13.828770       1
       16283.196       255.85700       13.958972       1
       16306.218       254.46478       14.094997       1
       16329.239       248.68744       14.483424       1
       16352.261       258.67598       14.130744       1
       16375.282       249.06856       14.015618       1
       16398.304       251.26022       14.047869       1
       16421.325       231.28522       13.890610       1
       16444.347       235.04787       13.867863       1
       16467.368       225.86112       13.926638       1
       16490.390       219.59427       14.004704       1
       16513.412       237.80024       14.119196       1
       16536.433       225.40054       14.233688       1
       16559.455       237.79427       14.525071       1
       16582.476       232.92476       14.475035       1
       16605.498       247.92281       15.146393       1
       16628.519       258.09281       15.515083       1
       16651.541       215.59865       15.482987       1
       16674.562       241.10399       16.553583       1
       16697.584       291.80677       17.533461       1
       16720.605       267.55278       18.397208       1
       16743.627       296.56415       19.246720       1
       16766.649       295.14738       20.442738       0
       16789.670       295.99370       21.313170       0
       16812.692       311.05042       22.886799       0
       16835.713       323.99469       23.893686       0
       16858.735       316.24020       25.562032       0
       16881.756       312.69534       26.423581       0
       16904.778       293.31309       29.236532       0
       16927.799       333.22779       28.773511       0
       16950.821       245.80027       31.159404       0
       16973.843       295.10558       32.511826       0
       16996.864       452.02354       35.412769       0
       17019.886       430.75391       36.262855       0
       17042.907       467.68068       39.086941       0
       17065.929       492.35016       40.561686       0
       17088.950       507.67464       43.242557       0
       17111.972       525.86120       44.552084       0
       17134.993       677.06198       49.232581       0
       17158.015       599.81277       52.224623       0
       17181.036       581.88007       55.904548       0
       17204.058       901.30282       59.846120       0
       17227.080       854.43614       63.876941       0
       17250.101       946.50224       66.297525       0
       17273.123       1325.5051       71.514511       0
       17296.144       804.50841       74.300327       0
       17319.166       465.96827       76.923836       0
       17342.187       625.34917       81.612578       0
       17365.209       396.22212       86.157674       0
