#WAVELENGTH FLUX ERROR MASK
       7496.9478      -1958.2306       341.92862       0
       7509.0949       7713.5368       392.49908       0
       7521.2421      -4951.6935       288.96920       0
       7533.3892      -1148.3629       332.48929       0
       7545.5364       3021.2608       240.76421       0
       7557.6836      -2961.0754       249.78854       0
       7569.8307       2640.1564       189.17680       0
       7581.9779       2358.9622       211.48295       0
       7594.1251      -856.05610       152.44895       0
       7606.2722       414.05558       174.32608       0
       7618.4194       532.32544       128.65376       0
       7630.5665       554.76431       149.85531       0
       7642.7137       1451.3523       111.35084       0
       7654.8609       480.96957       129.11170       0
       7667.0080       718.65708       94.648557       0
       7679.1552       285.95356       108.19260       0
       7691.3024       281.43731       78.834706       0
       7703.4495       386.08100       90.751338       0
       7715.5967       301.56450       67.073095       0
       7727.7438       722.37655       79.703674       0
       7739.8910       165.19261       59.697069       0
       7752.0382      -77.009547       71.369870       0
       7764.1853       479.20677       55.134331       0
       7776.3325     0.067175773       65.890836       0
       7788.4797       346.99186       50.710056       0
       7800.6268      -117.73434       55.756741       0
       7812.7740       153.07825       45.773046       0
       7824.9211      -32.648414       53.903140       0
       7837.0683       122.29106       41.159561       0
       7849.2155       200.03301       48.966407       0
       7861.3626       81.452864       37.128012       0
       7873.5098      -65.391337       44.253765       0
       7885.6570       132.75063       34.174806       0
       7897.8041       169.66317       41.540929       0
       7909.9513       19.787741       31.970068       0
       7922.0984       71.062935       33.209310       0
       7934.2456       114.66842       30.433629       0
       7946.3928       98.550494       37.107787       0
       7958.5399       115.22672       29.091102       0
       7970.6871       67.221183       35.539279       0
       7982.8343       81.744853       32.467429       0
       7994.9814       127.64727       34.367684       0
       8007.1286       50.939346       26.981144       0
       8019.2757       54.329661       30.680313       0
       8031.4229       59.915720       26.355530       0
       8043.5701       13.279944       27.897725       0
       8055.7172      -12.310718       25.612673       0
       8067.8644       29.070593       31.866072       0
       8080.0116       130.54109       25.433177       0
       8092.1587       58.874873       31.379793       0
       8104.3059       92.603277       25.833746       0
       8116.4530       40.097891       30.903580       0
       8128.6002       40.556401       28.164479       0
       8140.7474       21.346786       30.175196       0
       8152.8945       82.464195       24.073666       1
       8165.0417       6.4973429       29.832311       1
       8177.1889       83.962265       23.584164       1
       8189.3360       91.827587       29.442483       1
       8201.4832       129.22093       24.087986       1
       8213.6304       20.221603       28.752247       1
       8225.7775       30.654206       22.579115       1
       8237.9247      -14.752062       27.724067       1
       8250.0718       101.94568       22.152137       1
       8262.2190       82.850080       29.814931       1
       8274.3662       50.687240       21.226475       1
       8286.5133       28.626067       26.190894       1
       8298.6605       66.592721       21.529360       1
       8310.8077       34.416256       26.121125       1
       8322.9548       52.066244       20.985262       1
       8335.1020       91.900769       23.797714       1
       8347.2491       71.964331       20.161715       1
       8359.3963       87.720562       25.378652       1
       8371.5435       63.698699       19.846790       1
       8383.6906       66.993611       24.539723       1
       8395.8378       19.659323       19.558979       1
       8407.9850       91.877344       24.430160       1
       8420.1321       35.774297       19.923381       1
       8432.2793       13.851476       23.787859       1
       8444.4264       30.462701       19.682448       1
       8456.5736       65.245074       23.610384       1
       8468.7208       44.501025       18.681680       1
       8480.8679       79.101723       23.392381       1
       8493.0151       60.025606       18.515844       1
       8505.1623       37.861083       23.156836       1
       8517.3094       31.660663       18.349046       1
       8529.4566       54.498641       23.029064       1
       8541.6037       89.636017       18.374771       1
       8553.7509       64.249947       22.732448       1
       8565.8981       57.467234       18.665467       1
       8578.0452       41.136029       22.720459       1
       8590.1924       78.113064       18.270344       1
       8602.3396       61.095603       22.685355       1
       8614.4867       52.490939       18.070119       1
       8626.6339       77.285223       22.551688       1
       8638.7810       89.030220       18.609950       1
       8650.9282       60.115895       22.362298       1
       8663.0754       69.981450       18.960889       1
       8675.2225       70.112388       22.172874       1
       8687.3697       55.338854       20.017373       1
       8699.5169       89.161679       21.897112       1
       8711.6640       64.093531       17.247847       1
       8723.8112       62.742074       21.503322       1
       8735.9583       40.858950       16.928444       1
       8748.1055       77.144212       21.104713       1
       8760.2527       37.987021       16.693856       1
       8772.3998       57.649068       20.812924       1
       8784.5470       52.548527       16.583234       1
       8796.6942       48.096065       20.581460       1
       8808.8413       75.804777       18.791682       1
       8820.9885       131.61802       20.686868       1
       8833.1356       31.938704       16.174209       1
       8845.2828       13.187777       18.943789       1
       8857.4300       46.868625       18.327086       1
       8869.5771       71.068167       19.987756       1
       8881.7243       32.726451       15.832728       1
       8893.8715       71.067847       19.888366       1
       8906.0186       35.307125       15.746172       1
       8918.1658       64.737462       19.806532       1
       8930.3129       41.283365       15.621259       1
       8942.4601       60.401535       19.580348       1
       8954.6073       49.132515       15.469709       1
       8966.7544       34.298791       19.229414       1
       8978.9016       91.043976       15.374378       1
       8991.0488       53.333609       19.024257       1
       9003.1959       68.126414       15.334816       1
       9015.3431       62.328165       18.944162       1
       9027.4902       44.017225       15.390827       1
       9039.6374       80.039205       18.902360       1
       9051.7846       63.464923       15.236985       1
       9063.9317       53.404600       18.723787       1
       9076.0789       65.832458       15.006038       1
       9088.2261       80.663531       18.724423       1
       9100.3732       74.397456       14.950431       1
       9112.5204       48.454529       18.391590       1
       9124.6675       80.978572       14.714826       1
       9136.8147       54.315305       18.306891       1
       9148.9619       64.296547       14.573873       1
       9161.1090       65.393411       18.207649       1
       9173.2562       67.384009       14.439083       1
       9185.4034       51.593911       17.892146       1
       9197.5505       44.552906       14.254854       1
       9209.6977       76.725553       18.074164       1
       9221.8448       60.403760       14.352913       1
       9233.9920       66.883981       17.988674       1
       9246.1392       59.981524       14.264262       1
       9258.2863       48.277338       17.870105       1
       9270.4335       63.692314       14.129838       1
       9282.5807       70.332789       17.833212       1
       9294.7278       81.355960       15.972194       1
       9306.8750       77.835589       18.792560       1
       9319.0221       65.870905       14.037043       1
       9331.1693       52.682427       17.664304       1
       9343.3165       69.351141       13.998292       1
       9355.4636       35.349134       17.600356       1
       9367.6108       66.410987       13.912577       1
       9379.7580       64.153422       17.705069       1
       9391.9051       77.809223       13.934257       1
       9404.0523       86.300233       18.366619       1
       9416.1994       74.830583       13.811854       1
       9428.3466       54.679666       19.000209       1
       9440.4938       66.952905       13.732579       1
       9452.6409       85.049413       18.856510       1
       9464.7881       91.377314       13.626438       1
       9476.9353       100.64965       18.011796       1
       9489.0824       90.743871       13.516556       1
       9501.2296       93.691168       16.935760       1
       9513.3768       83.323010       13.511403       1
       9525.5239       95.799867       18.437782       1
       9537.6711       64.184282       13.363204       1
       9549.8182       108.97704       16.850018       1
       9561.9654       81.761363       14.824188       1
       9574.1126       83.765536       19.405829       1
       9586.2597       70.375604       15.088837       1
       9598.4069       101.24027       4382655.5       1
       9610.5541       84.790668       13.169703       1
       9622.7012       41.844893       16.061447       1
       9634.8484       82.234282       13.120255       1
       9646.9955       81.538618       17.928106       1
       9659.1427       64.235732       13.488411       1
       9671.2899       76.063554       16.249799       1
       9683.4370       84.334566       14.490102       1
       9695.5842       61.687311       16.233740       1
       9707.7314       84.554818       14.459276       1
       9719.8785       63.668901       17.129828       1
       9732.0257       56.155528       14.221539       1
       9744.1728       103.32855       17.058651       1
       9756.3200       79.996839       12.834475       1
       9768.4672       54.412920       15.135804       1
       9780.6143       74.267477       13.078610       1
       9792.7615       90.293657       16.055199       1
       9804.9087       71.924437       13.096405       1
       9817.0558       90.431759       15.990153       1
       9829.2030       74.635103       12.730926       1
       9841.3501       79.671157       15.952804       1
       9853.4973       91.402918       12.704522       1
       9865.6445       67.264476       15.920387       1
       9877.7916       64.532321       12.661524       1
       9889.9388       67.843358       15.823379       1
       9902.0860       76.877725       12.634203       1
       9914.2331       66.023432       15.930191       1
       9926.3803       63.644962       12.657653       1
       9938.5274       79.021051       16.196016       1
       9950.6746       61.801811       12.643693       1
       9962.8218       88.318377       15.845149       1
       9974.9689       73.764477       12.544990       1
       9987.1161       55.902470       15.580662       1
       9999.2633       75.954108       12.446419       1
       10011.410       98.430770       15.572940       1
       10023.558       89.578651       14.474153       1
       10035.705       75.972767       17.073473       1
       10047.852       73.201453       12.375657       1
       10059.999       67.709337       15.393709       1
       10072.146       72.935390       12.771961       1
       10084.293       40.233052       14.405234       1
       10096.441       69.624565       12.241134       1
       10108.588       68.599795       15.454626       1
       10120.735       83.895889       14.209138       1
       10132.882       78.122976       15.499657       1
       10145.029       75.680147       12.315567       1
       10157.176       75.741502       15.115512       1
       10169.324       65.185819       12.060241       1
       10181.471       76.734457       15.070898       1
       10193.618       80.590876       12.538340       1
       10205.765       62.047034       14.895948       1
       10217.912       74.293079       12.042923       1
       10230.059       65.519887       14.892108       1
       10242.207       89.229683       12.031743       1
       10254.354       69.084307       14.708023       1
       10266.501       73.989857       11.877576       1
       10278.648       89.816163       14.798021       1
       10290.795       80.130979       11.790738       1
       10302.942       80.880066       14.780424       1
       10315.089       79.370043       11.766475       1
       10327.237       75.363677       14.674481       1
       10339.384       73.918886       11.615024       1
       10351.531       68.406149       14.500073       1
       10363.678       78.996840       11.725415       1
       10375.825       64.188259       14.590491       1
       10387.972       69.389746       13.227215       1
       10400.120       90.920443       14.807019       1
       10412.267       85.427809       11.763122       1
       10424.414       65.730334       14.676626       1
       10436.561       88.796114       11.604140       1
       10448.708       82.007980       14.684846       1
       10460.855       75.754563       11.711929       1
       10473.003       81.985619       14.682020       1
       10485.150       89.125218       11.851069       1
       10497.297       71.022820       14.629692       1
       10509.444       94.788248       11.770965       1
       10521.591       72.162334       14.626683       1
       10533.738       83.035329       11.719154       1
       10545.886       75.342554       14.645291       1
       10558.033       88.200572       12.073878       1
       10570.180       81.317814       14.644755       1
       10582.327       94.012732       11.737560       1
       10594.474       81.265218       14.672319       1
       10606.621       78.276635       11.658196       1
       10618.769       70.813447       13.713953       1
       10630.916       94.017597       11.617957       1
       10643.063       75.319321       14.433009       1
       10655.210       73.533463       11.513604       1
       10667.357       79.201930       14.390758       1
       10679.504       74.910475       11.469536       1
       10691.652       67.893614       14.285030       1
       10703.799       85.529844       11.511701       1
       10715.946       95.364679       14.462749       1
       10728.093       100.38468       11.533537       1
       10740.240       83.855671       14.339277       1
       10752.387       80.580518       11.429204       1
       10764.535       62.197798       14.254660       1
       10776.682       85.153066       11.422550       1
       10788.829       79.635503       14.254936       1
       10800.976       77.925150       11.428093       1
       10813.123       91.142880       14.376434       1
       10825.270       85.749008       11.420776       1
       10837.417       81.703694       14.255025       1
       10849.565       88.242105       11.433405       1
       10861.712       84.338350       14.137364       1
       10873.859       76.916726       11.238322       1
       10886.006       64.216481       14.018540       1
       10898.153       77.628023       11.276909       1
       10910.300       70.820124       14.016481       1
       10922.448       70.184355       11.209036       1
       10934.595       77.363181       14.017828       1
       10946.742       77.658945       11.245546       1
       10958.889       79.151593       14.050737       1
       10971.036       79.749135       11.275596       1
       10983.183       66.609390       13.958184       1
       10995.331       78.498280       11.271075       1
       11007.478       78.808583       14.059970       1
       11019.625       69.258416       11.227633       1
       11031.772       58.739274       13.924094       1
       11043.919       77.839745       11.219968       1
       11056.066       74.070100       14.036168       1
       11068.214       72.223373       11.157600       1
       11080.361       79.991403       14.015409       1
       11092.508       60.742635       11.157649       1
       11104.655       74.206698       14.198133       1
       11116.802       65.245317       11.284584       1
       11128.949       78.872954       14.273444       1
       11141.097       74.390452       11.334286       1
       11153.244       71.679971       14.101468       1
       11165.391       78.138993       11.352568       1
       11177.538       79.918980       14.242240       1
       11189.685       65.730226       11.312017       1
       11201.832       71.302100       14.194738       0
       11213.980       71.559088       11.350838       0
       11226.127       74.446599       14.204523       0
       11238.274       69.556422       11.256686       0
       11250.421       47.450514       14.058204       0
       11262.568       62.791811       11.278317       0
       11274.715       43.653897       14.004545       0
       11286.862       63.020391       12.626947       0
       11299.010       55.023566       14.123585       0
       11311.157       61.531192       11.298092       0
       11323.304       70.157828       4002325.7       0
       11335.451       61.479948       11.348159       0
       11347.598       76.523082       14.409152       0
       11359.745       69.260752       11.723235       0
       11371.893       53.499883       14.935085       0
       11384.040       56.101088       12.298928       0
       11396.187       61.887952       15.988201       0
       11408.334       64.319532       13.855727       0
       11420.481       76.843491       17.725951       0
       11432.628       39.365954       14.880924       0
       11444.776       82.232378       19.953072       0
       11456.923       21.618860       16.894882       0
       11469.070       65.694257       22.619960       0
       11481.217       38.275733       19.048816       0
       11493.364       73.352914       25.263022       0
       11505.511       69.330227       21.839976       0
       11517.659       28.667949       26.323856       0
       11529.806       54.292833       23.497574       0
       11541.953       63.899577       31.431759       0
       11554.100       86.049205       27.077285       0
       11566.247       35.532417       36.795142       0
       11578.394       125.36595       32.447547       0
       11590.542       12.862633       45.045475       0
       11602.689       7.5740123       46.951002       0
       11614.836       6.0692839       55.837324       0
       11626.983       32.249955       49.261823       0
       11639.130       336.24714       74.609848       0
       11651.277       9.3376772       59.874144       0
       11663.425       338.49136       97.415345       0
       11675.572       312.49161       74.045274       0
       11687.719       515.75877       110.34341       0
       11699.866      -365.30802       95.479625       0
       11712.013       4.8765544       135.99437       0
       11724.160      -953.64077       124.66031       0
       11736.308       348.80908       176.86411       0
       11748.455       138.95660       151.80739       0
       11760.602       1252.3499       195.69773       0
       11772.749       902.47513       156.31641       0
       11784.896       2101.5505       192.81780       0
       11797.043       2404.3238       152.48914       0
       11809.190       1083.3990       191.50859       0
       11821.338       1618.2929       156.46289       0
       11833.485       3899.2281       205.32653       0
       11845.632       2922.8611       175.03262       0
       11857.779      -1562.5879       234.94441       0
