#WAVELENGTH FLUX ERROR MASK
       7505.4867       6208.3185       331.79382       0
       7517.6681       195.03420       244.54953       0
       7529.8495       6314.4902       282.24150       0
       7542.0309       3285.3442       206.16169       0
       7554.2123      -669.30803       227.92258       0
       7566.3937      -1617.8187       181.11447       0
       7578.5751      -2875.7761       179.51852       0
       7590.7565       740.12413       131.35377       0
       7602.9378       1122.6041       151.13381       0
       7615.1192       966.76826       110.22686       0
       7627.3006       957.07676       126.97873       0
       7639.4820      -385.97571       94.504670       0
       7651.6634      -307.47728       110.71131       0
       7663.8448      -135.45028       85.750770       0
       7676.0262       240.72296       91.849193       0
       7688.2076       856.82386       68.093039       0
       7700.3889       521.20318       77.799119       0
       7712.5703       67.994066       63.991565       0
       7724.7517      -15.563371       67.580998       0
       7736.9331       126.07864       50.713822       0
       7749.1145       105.41597       59.975518       0
       7761.2959       176.70862       52.961672       0
       7773.4773      -29.679339       55.336406       0
       7785.6586       40.205871       43.193541       0
       7797.8400       149.07595       51.413026       0
       7810.0214       157.40118       38.890524       0
       7822.2028       280.96840       45.884068       0
       7834.3842     -0.95597846       35.092558       0
       7846.5656       75.424866       40.958161       0
       7858.7470       100.87136       32.121785       0
       7870.9284       13.453597       37.233061       0
       7883.1097       8.8006901       29.027817       0
       7895.2911       48.743051       34.582611       0
       7907.4725      -18.777586       26.940209       0
       7919.6539       60.703710       32.741029       0
       7931.8353       15.647477       25.617694       0
       7944.0167       164.77889       31.676378       0
       7956.1981       48.769822       25.092667       0
       7968.3795       82.737763       31.235198       0
       7980.5608       9.1898150       23.564061       0
       7992.7422       49.599180       28.636595       0
       8004.9236      0.84258480       22.737824       0
       8017.1050       60.496606       27.857753       0
       8029.2864       47.257487       22.318720       0
       8041.4678       16.329892       27.015152       0
       8053.6492       84.214611       21.742728       0
       8065.8305       42.771620       26.630674       0
       8078.0119       21.459890       22.595084       0
       8090.1933      -25.992965       26.096846       0
       8102.3747       56.399869       20.977102       0
       8114.5561      -10.450937       25.603445       0
       8126.7375       49.268624       20.637882       0
       8138.9189      -3.6180144       25.168910       0
       8151.1003       51.572189       20.271993       1
       8163.2816      -12.035278       24.837080       1
       8175.4630       2.2539950       19.886674       1
       8187.6444      -8.2070330       24.423310       1
       8199.8258       54.946550       19.577142       1
       8212.0072       1.1936523       23.855929       1
       8224.1886      -20.795342       19.135232       1
       8236.3700      -1.1070424       23.391809       1
       8248.5514       15.650486       18.666308       1
       8260.7327       17.968196       22.945079       1
       8272.9141       17.952947       18.224591       1
       8285.0955       30.438532       22.396922       1
       8297.2769       19.144887       17.807329       1
       8309.4583       42.932531       21.742699       1
       8321.6397      -8.0030299       17.159716       1
       8333.8211      -15.984776       21.271974       1
       8346.0024      -8.2574924       16.974537       1
       8358.1838      -38.914312       19.899536       1
       8370.3652      -16.098597       16.800183       1
       8382.5466      -17.551956       20.719988       1
       8394.7280       18.487923       16.610292       1
       8406.9094       4.3976819       20.470398       1
       8419.0908       19.508728       16.484193       1
       8431.2722       2.6221260       20.109762       1
       8443.4535      -56.939384       17.882908       1
       8455.6349       45.656475       19.965537       1
       8467.8163       9.8954727       16.388466       1
       8479.9977       8.9104626       19.591324       1
       8492.1791      -19.682006       17.073432       1
       8504.3605       3.4410433       19.451191       1
       8516.5419       32.687619       16.943476       1
       8528.7233      -6.7321791       19.250182       1
       8540.9046       17.428060       15.433821       1
       8553.0860      -7.1126647       19.112184       1
       8565.2674      -4.1462540       15.297963       1
       8577.4488       8.9487727       18.981816       1
       8589.6302       24.472059       15.343451       1
       8601.8116       14.352107       19.040046       1
       8613.9930       15.147388       17.343641       1
       8626.1743     -0.48607954       19.473244       1
       8638.3557       25.312580       15.821366       1
       8650.5371       26.095813       18.926310       1
       8662.7185       2.1370613       15.061714       1
       8674.8999       21.090408       18.640034       1
       8687.0813      -12.813747       14.871837       1
       8699.2627       24.469483       18.442035       1
       8711.4441       11.357817       14.672417       1
       8723.6254      -6.1120724       17.943899       1
       8735.8068       13.180231       14.330117       1
       8747.9882      -45.019665       16.787840       1
       8760.1696       26.975737       14.310021       1
       8772.3510       22.111218       17.660565       1
       8784.5324       21.615285       14.136692       1
       8796.7138       16.511331       17.472819       1
       8808.8952       19.307949       13.969228       1
       8821.0765       5.8381160       17.251260       1
       8833.2579       44.989841       13.862190       1
       8845.4393       31.511383       17.134022       1
       8857.6207       24.562532       13.685760       1
       8869.8021       10.429781       16.899045       1
       8881.9835       9.2764188       13.512666       1
       8894.1649       13.023266       16.570258       1
       8906.3462       25.184746       13.490313       1
       8918.5276       25.123076       16.691618       1
       8930.7090       45.672725       13.771487       1
       8942.8904       22.921146       16.558012       1
       8955.0718       22.076480       13.245981       1
       8967.2532       46.272751       16.525310       1
       8979.4346       47.507587       13.092470       1
       8991.6160       40.430057       16.532309       1
       9003.7973       10.297106       13.002777       1
       9015.9787       25.415121       16.236890       1
       9028.1601       33.284485       13.350513       1
       9040.3415       13.589350       16.153550       1
       9052.5229       41.037379       13.047690       1
       9064.7043       49.500323       16.173990       1
       9076.8857       21.924484       12.935328       1
       9089.0671       23.519601       16.009507       1
       9101.2484       26.476941       12.821681       1
       9113.4298       14.036838       15.984507       1
       9125.6112       17.727539       12.661080       1
       9137.7926       38.529424       15.891834       1
       9149.9740       39.872647       12.605951       1
       9162.1554       29.335454       15.559616       1
       9174.3368       22.752492       12.449280       1
       9186.5181       21.965484       15.403007       1
       9198.6995       21.489920       12.343829       1
       9210.8809       49.999202       15.400695       1
       9223.0623       32.406653       12.263257       1
       9235.2437     -0.43395933       14.616677       1
       9247.4251       20.808408       12.377488       1
       9259.6065       26.217733       15.348565       1
       9271.7879       18.307324       12.303681       1
       9283.9692       25.302328       15.267770       1
       9296.1506       26.423707       12.364891       1
       9308.3320       47.962178       15.245076       1
       9320.5134       29.884933       13.804783       1
       9332.6948       15.843709       15.073524       1
       9344.8762       30.316034       12.234656       1
       9357.0576       29.563576       15.058432       1
       9369.2390       40.460634       12.333431       1
       9381.4203       25.967829       14.991029       1
       9393.6017       47.763540       12.239210       1
       9405.7831       57.671772       4022486.4       1
       9417.9645       12.988536       11.402835       1
       9430.1459       37.475515       14.904585       1
       9442.3273       25.800026       11.924457       1
       9454.5087       3.4125136       14.065247       1
       9466.6900       37.609052       11.890325       1
       9478.8714       26.961531       14.681855       1
       9491.0528       21.719495       13.141078       1
       9503.2342       32.379078       14.682714       1
       9515.4156       47.398087       11.905010       1
       9527.5970       15.158741       14.025590       1
       9539.7784       40.116059       11.780956       1
       9551.9598       31.543882       14.901086       1
       9564.1411       38.242961       11.687028       1
       9576.3225       19.874424       14.712477       1
       9588.5039       43.957789       12.032880       1
       9600.6853       17.610299       14.365989       1
       9612.8667       26.138116       11.570075       1
       9625.0481      -2.9539924       13.602171       1
       9637.2295       36.295255       11.912018       1
       9649.4109       27.952322       14.389307       1
       9661.5922       36.024721       11.561206       1
       9673.7736       41.721346       14.525740       1
       9685.9550       36.345273       11.536529       1
       9698.1364      -29.750311       3778075.0       1
       9710.3178       39.057221       12.983851       1
       9722.4992       27.866128       14.129200       1
       9734.6806       40.734617       11.700300       1
       9746.8619       40.439505       14.222071       1
       9759.0433       24.512747       11.343092       1
       9771.2247       24.677206       14.030867       1
       9783.4061       34.904846       12.359456       1
       9795.5875       28.821809       13.934083       1
       9807.7689       24.962660       11.606266       1
       9819.9503       27.019963       13.921607       1
       9832.1317       25.982862       11.258810       1
       9844.3130       25.306050       14.115482       1
       9856.4944       20.548174       11.226151       1
       9868.6758       29.872629       13.952972       1
       9880.8572       37.085549       11.220813       1
       9893.0386       41.360805       13.982962       1
       9905.2200       19.164183       11.162093       1
       9917.4014       32.914921       13.906282       1
       9929.5828       38.104494       11.524750       1
       9941.7641       34.991983       13.865359       1
       9953.9455       26.090787       11.130975       1
       9966.1269       34.534596       13.712144       1
       9978.3083       25.271182       11.092425       1
       9990.4897       11.011011       13.555106       1
       10002.671       28.611731       10.986665       1
       10014.852       32.745538       13.593249       1
       10027.034       14.205815       10.893015       1
       10039.215       34.254668       13.562405       1
       10051.397       19.465440       10.907165       1
       10063.578       23.927856       13.486940       1
       10075.759       36.318912       10.980175       1
       10087.941       17.294223       13.534204       1
       10100.122       14.644628       11.113705       1
       10112.304       27.743959       13.588347       1
       10124.485       18.599908       11.109750       1
       10136.666       23.044125       13.502033       1
       10148.848       33.219124       10.868299       1
       10161.029       27.718459       13.286574       1
       10173.210       34.511260       10.736691       1
       10185.392       30.498146       13.266566       1
       10197.573       27.038772       10.712925       1
       10209.755       36.896043       13.335776       1
       10221.936       29.157798       10.655793       1
       10234.117       17.449075       13.120964       1
       10246.299       25.503437       10.571318       1
       10258.480       38.963918       13.177771       1
       10270.662       24.732384       10.518130       1
       10282.843       26.281687       13.103279       1
       10295.024       37.811260       10.551372       1
       10307.206       23.663655       13.094781       1
       10319.387       25.660095       10.437319       1
       10331.569       20.106587       13.054117       1
       10343.750       14.457507       10.393984       1
       10355.931       32.416173       13.014986       1
       10368.113       19.537238       10.426363       1
       10380.294       21.491557       12.919171       1
       10392.475       26.082007       10.480989       1
       10404.657       6.3104964       13.110567       1
       10416.838       15.338835       10.376494       1
       10429.020       19.662045       12.928261       1
       10441.201       13.606585       10.375154       1
       10453.382       22.329882       12.955688       1
       10465.564       25.721687       10.394972       1
       10477.745       21.559268       12.919943       1
       10489.927       26.551094       10.472633       1
       10502.108       27.215311       12.990211       1
       10514.289       21.066893       10.369192       1
       10526.471       5.1521772       12.882489       1
       10538.652       16.646590       10.515413       1
       10550.833      -26.250356       12.076910       1
       10563.015       16.040388       10.384802       1
       10575.196       16.870002       12.936691       1
       10587.378       10.141988       10.374827       1
       10599.559       19.380018       12.919019       1
       10611.740       17.620741       10.323363       1
       10623.922       26.956852       12.882254       1
       10636.103       9.5328966       10.306949       1
       10648.285       20.460625       12.817581       1
       10660.466       17.617079       10.236602       1
       10672.647       21.365634       13.472447       1
       10684.829       8.4554353       10.215069       1
       10697.010       1.6787421       12.643267       1
       10709.192       11.093906       10.205647       1
       10721.373       16.372769       12.690361       1
       10733.554       24.452662       10.267698       1
       10745.736       23.916713       12.752259       1
       10757.917       30.787333       10.259376       1
       10770.098       22.377365       12.683564       1
       10782.280       14.307206       10.201631       1
       10794.461       19.181788       12.696500       1
       10806.643       18.380176       10.214749       1
       10818.824       24.357465       12.810765       1
       10831.005       6.8228980       10.158194       1
       10843.187       22.742699       12.733594       1
       10855.368       25.056499       10.147272       1
       10867.550      -18.643654       11.791294       1
       10879.731       12.338750       10.089624       1
       10891.912       14.094302       12.609715       1
       10904.094       2.0050985       10.060149       1
       10916.275       3.8296604       12.499243       1
       10928.456       6.1172065       10.075786       1
       10940.638       17.022502       12.577813       1
       10952.819       26.178526       10.128112       1
       10965.001       9.7940461       12.484963       1
       10977.182       12.097014       10.109766       1
       10989.363       10.555932       12.549723       1
       11001.545       17.388771       10.113352       1
       11013.726       13.909175       12.521158       1
       11025.908       12.639279       10.067733       1
       11038.089       27.237236       12.507552       1
       11050.270       12.081506       10.090043       1
       11062.452       15.825859       12.353469       1
       11074.633       15.530456       10.189152       1
       11086.815       12.104860       12.560873       1
       11098.996       23.393006       11.301387       1
       11111.177       11.823788       12.593857       1
       11123.359       23.633293       10.201081       1
       11135.540       21.399271       12.678520       1
       11147.721       20.747063       10.083397       1
       11159.903       20.216583       12.623895       1
       11172.084       13.623435       11.435362       1
       11184.266       21.684916       12.587723       1
       11196.447       20.293160       10.144461       1
       11208.628       8.2975421       12.473873       0
       11220.810       19.112884       10.203650       0
       11232.991       30.850729       12.610029       0
       11245.173       12.812941       10.031188       0
       11257.354       25.148959       12.563065       0
       11269.535       21.078388       10.092755       0
       11281.717       23.555277       12.646662       0
       11293.898       9.7949240       9.9989639       0
       11306.079       13.432408       12.478905       0
       11318.261       22.177871       11.123338       0
       11330.442       22.512361       12.797852       0
       11342.624       13.539631       10.376042       0
       11354.805       9.7546546       13.067321       0
       11366.986       6.6083569       11.000522       0
       11379.168       14.931932       13.931624       0
       11391.349       9.7080153       11.916336       0
       11403.531      -12.426601       15.128589       0
       11415.712     -0.14152342       13.644941       0
       11427.893      0.71235884       17.095812       0
       11440.075      -26.434929       16.598452       0
       11452.256      0.96016034       19.446301       0
       11464.438      -30.247435       16.576361       0
       11476.619      -11.220261       21.876315       0
       11488.800      -36.470667       20.060028       0
       11500.982      -79.530585       24.153777       0
       11513.163      -12.553909       20.593990       0
       11525.344      -44.518148       27.030762       0
       11537.526      -22.690533       23.400262       0
       11549.707      -77.448481       30.961321       0
       11561.889      -23.211057       27.547883       0
       11574.070       71.309594       37.616582       0
       11586.251      -177.43114       33.555585       0
       11598.433      -107.76998       46.555312       0
       11610.614      -4.4484608       41.749473       0
       11622.796      -122.82597       57.043457       0
       11634.977      -345.24524       50.441213       0
       11647.158       107.88660       68.415768       0
       11659.340      -388.49926       61.197487       0
       11671.521      -156.03723       86.443905       0
       11683.702      -489.97038       79.163109       0
       11695.884      -69.155349       114.51863       0
       11708.065      -448.79257       103.18187       0
       11720.247      -1289.2378       145.91847       0
       11732.428      -1750.1913       129.07881       0
       11744.609      -605.08664       166.98108       0
       11756.791       479.70764       136.95332       0
       11768.972       844.92771       167.92818       0
       11781.154       1045.7669       133.45744       0
       11793.335       176.68346       163.20038       0
       11805.516      -643.52584       133.00629       0
       11817.698       610.14867       170.96378       0
       11829.879      -48.101899       145.78882       0
       11842.061       1562.8190       196.43009       0
       11854.242       729.09122       171.52646       0
       11866.423       1779.9762       231.65662       0
       11878.605      -302.95903       201.41864       0
