#WAVELENGTH FLUX ERROR MASK
       7501.3487      -3598.8283       333.17208       0
       7513.5455       520.55444       380.71848       0
       7525.7423       1470.9423       295.33239       0
       7537.9391       175.95695       323.20343       0
       7550.1359       710.05529       234.85958       0
       7562.3327      -4048.9048       258.75714       0
       7574.5295       1729.7506       183.64728       0
       7586.7263       301.23444       203.01566       0
       7598.9231       35.494989       151.23943       0
       7611.1199      -38.526273       166.81945       0
       7623.3168       277.58616       126.69135       0
       7635.5136      -299.57643       147.20369       0
       7647.7104       665.08999       112.86862       0
       7659.9072       398.40276       126.68360       0
       7672.1040       6.4923357       92.053080       0
       7684.3008      -67.481785       105.64195       0
       7696.4976      -239.76567       76.753812       0
       7708.6944      -47.025513       88.778882       0
       7720.8912       312.14547       66.673649       0
       7733.0880       103.90672       78.459829       0
       7745.2849       64.491615       60.523846       0
       7757.4817       47.108787       71.981675       0
       7769.6785      -215.93487       54.591969       0
       7781.8753       105.77963       66.930082       0
       7794.0721       46.624970       52.903588       0
       7806.2689       13.472937       59.857657       0
       7818.4657       55.594274       45.370961       0
       7830.6625       71.886328       53.728903       0
       7842.8593       17.881837       40.659810       0
       7855.0562      -2.1342482       48.269355       0
       7867.2530       115.56943       37.103954       0
       7879.4498      -25.580446       44.462690       0
       7891.6466       50.685781       34.627704       0
       7903.8434       39.183573       39.872604       0
       7916.0402       40.012239       34.882868       0
       7928.2370       53.752242       39.262174       0
       7940.4338       33.414654       30.946227       0
       7952.6306       7.3284205       37.450214       0
       7964.8274       14.101409       29.648744       0
       7977.0243       59.886996       36.080923       0
       7989.2211       95.527926       29.746526       0
       8001.4179      -18.764694       33.453243       0
       8013.6147       54.673958       28.202347       0
       8025.8115       38.345499       33.733437       0
       8038.0083      0.47357832       26.552431       0
       8050.2051       122.26514       32.947213       0
       8062.4019       1.2785845       26.379447       0
       8074.5987      -55.576897       32.119991       0
       8086.7955       94.994337       25.939538       0
       8098.9924       72.998292       31.748896       0
       8111.1892       57.210983       28.526835       0
       8123.3860       72.333607       31.144427       0
       8135.5828       16.582130       24.636560       0
       8147.7796       19.190931       30.536257       0
       8159.9764       54.116629       27.432043       1
       8172.1732       49.244535       30.161108       1
       8184.3700       33.926531       23.811988       1
       8196.5668       19.642321       29.785707       1
       8208.7636       24.322762       23.413087       1
       8220.9605      -12.240120       28.464675       1
       8233.1573       19.552358       24.412203       1
       8245.3541       45.338986       28.238040       1
       8257.5509       18.578424       22.268140       1
       8269.7477       43.643489       4999982.2       1
       8281.9445       58.034590       21.798548       1
       8294.1413       34.528781       27.058900       1
       8306.3381       7.8128096       21.332260       1
       8318.5349       52.885149       26.545910       1
       8330.7318       29.919627       21.304473       1
       8342.9286       28.578902       26.133844       1
       8355.1254       40.608148       21.463137       1
       8367.3222       48.985872       25.807791       1
       8379.5190       39.006045       20.834627       1
       8391.7158       24.713937       26.082891       1
       8403.9126       44.138283       20.513290       1
       8416.1094       26.311619       25.064883       1
       8428.3062       27.547310       19.920336       1
       8440.5030       21.388289       24.601790       1
       8452.6999       27.208387       19.777689       1
       8464.8967       13.945226       24.303265       1
       8477.0935       32.358267       19.296308       1
       8489.2903       52.188796       24.033804       1
       8501.4871       23.179838       19.311850       1
       8513.6839       39.986627       23.800160       1
       8525.8807       30.255567       18.796742       1
       8538.0775       19.555965       23.424098       1
       8550.2743       46.306593       18.705704       1
       8562.4711       11.180180       23.212401       1
       8574.6680       20.801704       18.572979       1
       8586.8648       9.4537135       22.451787       1
       8599.0616       35.541062       21.523667       1
       8611.2584       27.117261       23.191733       1
       8623.4552       45.349096       19.180148       1
       8635.6520       18.838252       23.029613       1
       8647.8488       40.629513       19.488827       1
       8660.0456       15.215481       22.855703       1
       8672.2424       30.793652       20.209488       1
       8684.4393       53.067119       22.664699       1
       8696.6361       50.358161       19.036279       1
       8708.8329       36.508752       22.167057       1
       8721.0297       36.391327       17.657809       1
       8733.2265       46.361743       21.884696       1
       8745.4233       37.461743       17.374098       1
       8757.6201       36.873375       21.486906       1
       8769.8169       26.986265       17.291329       1
       8782.0137       35.232490       21.199867       1
       8794.2105       38.854877       17.070134       1
       8806.4074       30.674554       21.005494       1
       8818.6042       23.462831       16.762116       1
       8830.8010       26.684172       20.672086       1
       8842.9978       32.463113       17.499144       1
       8855.1946       26.923860       20.487940       1
       8867.3914       31.053698       17.604610       1
       8879.5882       20.685976       20.189184       1
       8891.7850       12.711024       17.290248       1
       8903.9818       17.769712       20.077792       1
       8916.1786       51.012917       18.398830       1
       8928.3755       46.166143       20.029452       1
       8940.5723       27.520998       17.522376       1
       8952.7691       19.190577       20.748116       1
       8964.9659       33.045687       16.303095       1
       8977.1627       36.917298       19.497687       1
       8989.3595       35.336587       15.610295       1
       9001.5563       42.437244       19.485760       1
       9013.7531       28.733958       15.447439       1
       9025.9499       31.371622       18.699075       1
       9038.1468       30.278352       15.432445       1
       9050.3436       45.670272       19.386253       1
       9062.5404       28.654469       15.385283       1
       9074.7372       40.754643       19.222213       1
       9086.9340       29.630105       15.343439       1
       9099.1308       35.013433       3437556.2       1
       9111.3276       30.677284       15.157260       1
       9123.5244       27.609106       18.408490       1
       9135.7212       28.128592       15.004259       1
       9147.9180       14.977839       18.043508       1
       9160.1149       28.527040       15.791194       1
       9172.3117       31.387988       18.539256       1
       9184.5085       32.480025       15.512879       1
       9196.7053       26.679231       18.436865       1
       9208.9021       34.589621       14.836564       1
       9221.0989       16.758963       17.622369       1
       9233.2957       46.200540       14.503276       1
       9245.4925       27.172164       17.957107       1
       9257.6893       26.613238       15.049212       1
       9269.8861       14.652775       17.904128       1
       9282.0830       21.034220       14.485578       1
       9294.2798       22.399787       17.764251       1
       9306.4766       31.822226       14.416935       1
       9318.6734       37.018989       3198076.4       1
       9330.8702       27.052008       15.291212       1
       9343.0670       25.205777       17.698707       1
       9355.2638       28.104876       14.109979       1
       9367.4606       25.205603       17.651977       1
       9379.6574       17.058578       14.258770       1
       9391.8542       12.741063       17.064267       1
       9404.0511       34.796214       13.986486       1
       9416.2479       31.089664       18.136181       1
       9428.4447       21.503566       14.967154       1
       9440.6415       33.901115       18.913101       1
       9452.8383       16.614146       13.964533       1
       9465.0351       10.181276       17.577620       1
       9477.2319       27.912936       13.734572       1
       9489.4287       48.200655       17.257295       1
       9501.6255       23.705104       14.763707       1
       9513.8224       23.388007       16.891629       1
       9526.0192       25.774462       13.571517       1
       9538.2160       22.613247       16.964170       1
       9550.4128       32.268070       13.530876       1
       9562.6096       18.515501       16.889979       1
       9574.8064       23.154730       13.460799       1
       9587.0032       29.908355       17.312048       1
       9599.2000       27.863572       13.391928       1
       9611.3968       25.769908       16.251069       1
       9623.5936       30.088379       13.307864       1
       9635.7905       30.788390       16.726135       1
       9647.9873       25.918372       13.541613       1
       9660.1841       7.1313530       3059617.6       1
       9672.3809       21.248186       14.003523       1
       9684.5777       40.719139       16.644388       1
       9696.7745       26.179057       13.864879       1
       9708.9713       32.043075       16.531330       1
       9721.1681       29.594803       13.206008       1
       9733.3649       34.038102       16.463755       1
       9745.5617       27.549399       13.990764       1
       9757.7586       22.672802       16.274263       1
       9769.9554       34.501369       14.030865       1
       9782.1522       42.271164       16.305697       1
       9794.3490       33.754890       13.198034       1
       9806.5458       25.167215       16.207530       1
       9818.7426       29.263404       13.007261       1
       9830.9394       21.335583       16.113598       1
       9843.1362       22.901896       13.059806       1
       9855.3330       31.349121       17.536014       1
       9867.5299       32.321741       12.972114       1
       9879.7267       38.065724       16.217420       1
       9891.9235       27.964372       13.147042       1
       9904.1203       45.827329       16.152075       1
       9916.3171       37.058280       12.941696       1
       9928.5139       27.216775       15.887594       1
       9940.7107       33.631190       13.007594       1
       9952.9075       19.460538       15.768081       1
       9965.1043       37.085200       13.036108       1
       9977.3011       26.652834       15.792532       1
       9989.4980       35.780870       13.100764       1
       10001.695       36.517368       15.732082       1
       10013.892       28.691034       12.538331       1
       10026.088       31.976037       16.267510       1
       10038.285       34.022181       12.516838       1
       10050.482       9.6439513       15.990771       1
       10062.679       39.443082       12.740863       1
       10074.876       36.633972       15.703014       1
       10087.072       28.120851       12.561169       1
       10099.269       41.957058       15.660958       1
       10111.466       26.963841       12.485098       1
       10123.663       24.367511       15.609766       1
       10135.860       30.347867       12.481563       1
       10148.056       37.631779       15.611551       1
       10160.253       30.803635       12.457939       1
       10172.450       17.106780       15.474935       1
       10184.647       27.214688       12.376173       1
       10196.844       37.369491       15.557936       1
       10209.041       32.049746       13.126786       1
       10221.237       33.632080       15.551430       1
       10233.434       22.555077       12.457944       1
       10245.631       28.505842       15.424975       1
       10257.828       27.475349       12.213614       1
       10270.025       34.688573       15.310845       1
       10282.221       31.950300       12.832589       1
       10294.418       12.615119       14.827925       1
       10306.615       33.328365       12.169703       1
       10318.812       25.805763       15.305082       1
       10331.009       39.768882       12.635522       1
       10343.205       31.759984       15.259792       1
       10355.402       41.501480       12.446013       1
       10367.599       30.255680       15.179446       1
       10379.796       28.484079       12.037994       1
       10391.993       29.071607       15.132763       1
       10404.190       27.438434       12.221916       1
       10416.386       31.250032       15.117474       1
       10428.583       22.095570       12.020651       1
       10440.780       22.761915       15.005082       1
       10452.977       25.546992       12.820308       1
       10465.174       31.469553       15.102445       1
       10477.370       41.826051       12.071862       1
       10489.567       14.208531       14.999877       1
       10501.764       31.833204       13.611435       1
       10513.961       20.826604       15.060965       1
       10526.158       24.245818       11.913876       1
       10538.354       25.569925       14.982906       1
       10550.551       23.062263       11.956610       1
       10562.748       28.975765       15.016862       1
       10574.945       26.379488       11.967307       1
       10587.142       28.835632       15.029163       1
       10599.338       27.517932       11.934819       1
       10611.535       20.467773       14.911811       1
       10623.732       30.768205       11.913174       1
       10635.929       36.353752       14.948003       1
       10648.126       32.910242       11.854380       1
       10660.323       35.825069       14.894220       1
       10672.519       20.688236       11.804427       1
       10684.716       17.270457       14.721945       1
       10696.913       22.066115       11.737649       1
       10709.110       26.537468       14.806925       1
       10721.307       19.668990       11.779366       1
       10733.503       23.747881       14.734153       1
       10745.700       24.874206       11.816608       1
       10757.897       22.634832       15.108682       1
       10770.094       23.536314       11.711296       1
       10782.291       24.098025       14.553937       1
       10794.487       21.939112       11.758934       1
       10806.684       30.205686       14.733271       1
       10818.881       27.131153       11.730621       1
       10831.078       28.312642       14.703518       1
       10843.275       30.821725       11.743267       1
       10855.471       12.745596       14.616244       1
       10867.668       23.734453       11.577790       1
       10879.865       26.612135       14.665438       1
       10892.062       31.173218       11.682583       1
       10904.259       30.999021       14.630986       1
       10916.456       21.298229       11.802688       1
       10928.652       24.156528       14.596908       1
       10940.849       25.757321       11.819185       1
       10953.046       22.496403       14.593813       1
       10965.243       29.029049       12.003451       1
       10977.440       20.678047       14.494667       1
       10989.636       35.701803       11.688591       1
       11001.833       27.885020       14.586674       1
       11014.030       30.350798       11.648555       1
       11026.227       33.428044       14.510976       1
       11038.424       31.850148       11.601070       1
       11050.620       16.198495       14.090767       1
       11062.817       29.685674       12.474960       1
       11075.014       25.731723       14.502907       1
       11087.211       30.273080       11.762126       1
       11099.408       25.963924       14.446359       1
       11111.605       27.789021       11.769720       1
       11123.801       26.866079       14.383689       1
       11135.998       32.308374       11.744518       1
       11148.195       25.543365       14.383368       1
       11160.392       35.228112       11.546051       1
       11172.589       6.0281951       13.873597       1
       11184.785       25.472233       11.505625       1
       11196.982       15.819617       14.280120       1
       11209.179       28.876730       11.497557       0
       11221.376       13.186410       13.905839       0
       11233.573       36.568184       11.662634       0
       11245.769       22.794129       14.343502       0
       11257.966       40.343704       11.497154       0
       11270.163       25.036220       14.342125       0
       11282.360       26.003023       11.432034       0
       11294.557       15.895522       13.905226       0
       11306.753       28.355322       11.590519       0
       11318.950       36.203991       14.367244       0
       11331.147       26.382143       11.902194       0
       11343.344       21.972031       14.540329       0
       11355.541       35.845635       11.980856       0
       11367.738       23.928888       15.042520       0
       11379.934       25.257927       12.368192       0
       11392.131       27.320224       2960268.1       0
       11404.328       12.131173       13.311786       0
       11416.525       2.6257287       17.084772       0
       11428.722       29.742588       14.900459       0
       11440.918       18.819025       19.726877       0
       11453.115       13.450579       17.036832       0
       11465.312       35.267124       22.332310       0
       11477.509       24.451398       20.260769       0
       11489.706       2.4237883       25.313918       0
       11501.902       1.7933545       23.959576       0
       11514.099       20.944611       27.743271       0
       11526.296       7.2167872       23.354666       0
       11538.493       63.273706       31.215175       0
       11550.690      -17.042151       26.456349       0
       11562.886      -46.876236       35.887945       0
       11575.083       31.199705       31.575193       0
       11587.280      -20.789304       43.513972       0
       11599.477       59.765186       38.911901       0
       11611.674       13.249808       53.902270       0
       11623.871       154.86139       48.101224       0
       11636.067       92.312819       66.324771       0
       11648.264       98.869268       58.335307       0
       11660.461      -20.786567       79.875363       0
       11672.658      -221.96778       70.895154       0
       11684.855      -186.94704       100.31548       0
       11697.051      -394.96646       91.460714       0
       11709.248      -658.74271       129.94218       0
       11721.445       410.99398       119.67926       0
       11733.642      -905.19307       170.50396       0
       11745.839      -1742.4081       149.53479       0
       11758.035      -96.417113       195.27609       0
       11770.232      -1748.8883       157.10617       0
       11782.429      -2191.5174       194.97915       0
       11794.626      -2097.4150       153.04967       0
       11806.823      -74.114587       190.35057       0
       11819.020      -1110.1665       165.14135       0
       11831.216      -1509.5881       198.78740       0
       11843.413      -1314.7899       174.04222       0
       11855.610      -2768.4175       227.63081       0
       11867.807      -5578.2842       201.40013       0
       11880.004      -8889.7171       270.19687       0
