#WAVELENGTH FLUX ERROR MASK
       10204.552       591.38019       195.42508       0
       10227.575      -1248.0795       174.81632       0
       10250.598       1811.1169       170.65275       0
       10273.621       569.56653       152.01812       0
       10296.644       743.17352       146.00351       0
       10319.668       963.54939       133.24033       0
       10342.691       971.18636       130.28021       0
       10365.714       653.00163       119.86669       0
       10388.737       552.98835       118.06521       0
       10411.760       758.60846       108.54404       0
       10434.783      -26.340051       105.06639       0
       10457.806      -75.256681       94.781938       0
       10480.829       289.01593       89.682224       0
       10503.852       446.92908       80.349716       0
       10526.875       309.42169       75.633963       0
       10549.899       260.58644       67.978240       0
       10572.922       125.09196       65.280953       0
       10595.945       90.813069       59.737049       0
       10618.968       201.24592       58.564742       0
       10641.991       207.02784       54.153642       0
       10665.014      -201.84699       49.412800       0
       10688.037       94.176660       47.465530       0
       10711.060       78.541719       45.108386       0
       10734.083       83.675070       40.063650       0
       10757.107       103.43418       37.797206       0
       10780.130       78.756399       33.448019       0
       10803.153       67.492178       31.777212       0
       10826.176       44.024485       28.660125       0
       10849.199       68.244494       27.653907       0
       10872.222       98.118238       25.662907       0
       10895.245       70.142215       25.003071       0
       10918.268       74.616024       23.726322       0
       10941.291       83.064192       23.479463       0
       10964.314       67.376631       22.101947       0
       10987.338       83.755566       21.987145       0
       11010.361       96.203679       20.795824       1
       11033.384       81.910393       20.515710       1
       11056.407       81.115263       19.480199       1
       11079.430       53.027035       4402216.2       1
       11102.453       62.416670       18.430482       1
       11125.476       53.811236       18.568273       1
       11148.499       61.333648       17.813757       1
       11171.522       70.876063       18.263435       1
       11194.546       78.656472       17.595025       1
       11217.569       72.847288       18.041434       1
       11240.592       68.819640       17.370392       1
       11263.615       64.548332       18.821397       1
       11286.638       24.170503       16.078567       1
       11309.661       64.993287       17.672023       1
       11332.684       65.592914       17.262494       1
       11355.707       49.849785       17.472507       1
       11378.730       72.859971       17.184799       1
       11401.753       57.685200       17.290060       1
       11424.777       58.152334       16.927026       1
       11447.800       51.994678       17.353202       1
       11470.823       79.332608       16.981510       1
       11493.846       63.555377       17.387421       1
       11516.869       65.065177       16.997084       1
       11539.892       50.035308       17.242584       1
       11562.915       42.902007       16.599849       1
       11585.938       54.871637       17.181436       1
       11608.961       4.1484541       15.867033       1
       11631.984       67.512436       17.238396       1
       11655.008       60.434620       16.794809       1
       11678.031       66.626980       17.189943       1
       11701.054       57.828924       16.644837       1
       11724.077       51.006591       17.380635       1
       11747.100       74.669225       16.688102       1
       11770.123       61.971020       17.342576       1
       11793.146       55.315758       16.397031       1
       11816.169       76.035938       16.881921       1
       11839.192       60.410572       16.271840       1
       11862.216       52.557788       16.580564       1
       11885.239       55.875004       16.045204       1
       11908.262       75.311780       16.650080       1
       11931.285       50.907891       16.454920       1
       11954.308       64.755537       16.684413       1
       11977.331       53.451219       16.232852       1
       12000.354       41.764125       16.287040       1
       12023.377       43.611043       15.759187       1
       12046.400       60.288376       16.350708       1
       12069.423       56.492276       15.875108       1
       12092.447       50.180812       16.137333       1
       12115.470       36.549107       15.568751       1
       12138.493       42.145416       16.053029       1
       12161.516       49.937131       15.673388       1
       12184.539       34.513486       15.897011       1
       12207.562       52.468887       15.628059       1
       12230.585       42.437052       15.906997       1
       12253.608       39.817054       15.419991       1
       12276.631       29.750091       15.690747       1
       12299.655       53.930271       15.465186       1
       12322.678       34.273808       15.660375       1
       12345.701       51.358965       15.369172       1
       12368.724       45.442580       15.686517       1
       12391.747       47.362427       15.344358       1
       12414.770       50.372761       15.713246       1
       12437.793       47.984356       15.256444       1
       12460.816       37.409869       15.646471       1
       12483.839       52.557620       15.240892       1
       12506.862       50.818142       15.681200       1
       12529.886       71.816182       15.508035       1
       12552.909       12.098197       14.452255       1
       12575.932       50.624307       15.275589       1
       12598.955       54.932637       15.541312       1
       12621.978       61.607544       15.404932       1
       12645.001       64.302016       15.592532       1
       12668.024       49.814855       15.173883       1
       12691.047       6.7986324       14.382910       1
       12714.070     0.075435219       14.081133       1
       12737.094       44.956872       15.243492       1
       12760.117       17.663087       13.871325       1
       12783.140       26.232988       14.371276       1
       12806.163       60.963668       14.961591       1
       12829.186       51.871840       15.193937       1
       12852.209       51.935252       14.867665       1
       12875.232       52.489649       15.196718       1
       12898.255       61.222770       14.887976       1
       12921.278       46.549968       15.019335       1
       12944.301       5.5467122       13.432511       1
       12967.325       44.772531       14.944532       1
       12990.348       49.674723       14.560727       1
       13013.371       43.385531       14.906471       1
       13036.394       50.053465       14.690872       1
       13059.417       65.604386       15.096595       1
       13082.440      -21.803157       12.250115       1
       13105.463       47.642901       14.751252       1
       13128.486       44.025742       14.448462       1
       13151.509       59.590810       15.101372       1
       13174.532       32.137965       13.874502       1
       13197.556       59.366655       14.901636       1
       13220.579       59.714836       14.524412       1
       13243.602       58.096952       14.853078       1
       13266.625       56.509913       14.363100       1
       13289.648       56.273886       14.689721       1
       13312.671       57.013726       14.413434       1
       13335.694       48.869763       14.576685       1
       13358.717       56.009827       14.412852       1
       13381.740       52.233195       14.620366       1
       13404.764       50.135732       14.215438       1
       13427.787       57.304215       14.522540       1
       13450.810       53.760976       14.108843       1
       13473.833       57.520835       14.496539       1
       13496.856       57.809844       14.107713       1
       13519.879       53.743516       14.448474       1
       13542.902      -5.6025920       13.117809       1
       13565.925       64.002097       14.418266       1
       13588.948       60.439983       14.033038       1
       13611.971       61.402809       14.387962       1
       13634.995       67.220577       14.172251       1
       13658.018       60.193908       14.400783       1
       13681.041       43.535975       13.941408       1
       13704.064       64.081446       14.397779       1
       13727.087       62.120594       14.064737       1
       13750.110       58.357758       14.454920       1
       13773.133       56.150722       14.022367       1
       13796.156       52.224332       14.341072       1
       13819.179       53.756194       14.009576       1
       13842.203       51.352217       14.309924       1
       13865.226       61.400205       14.057439       1
       13888.249       55.725226       14.311574       1
       13911.272       67.142920       14.135395       1
       13934.295       55.967126       14.260776       1
       13957.318       57.946900       13.912226       1
       13980.341       47.882486       14.184306       1
       14003.364       54.375890       13.891531       1
       14026.387       56.427151       14.190592       1
       14049.410       59.285236       13.803299       1
       14072.434       61.924868       14.136264       1
       14095.457       51.298082       13.680181       1
       14118.480       56.531782       14.050434       1
       14141.503       56.934102       13.683510       1
       14164.526       66.593468       14.088806       1
       14187.549       53.619771       13.641206       1
       14210.572       49.086022       13.905976       1
       14233.595       64.418129       13.699820       1
       14256.618       63.011289       13.900154       1
       14279.642       51.210954       13.545647       1
       14302.665       52.677814       13.836989       1
       14325.688       50.563321       13.489347       1
       14348.711       55.449833       13.814523       1
       14371.734       70.828659       13.770437       1
       14394.757       61.251506       13.810547       1
       14417.780       47.085984       13.214649       1
       14440.803       51.655605       13.874796       1
       14463.826       46.456974       13.541236       1
       14486.849       37.659469       13.770845       1
       14509.873       37.692331       13.498201       1
       14532.896      -4.3712605       12.675341       1
       14555.919       41.250803       13.400810       1
       14578.942       46.317961       13.749273       1
       14601.965       45.847293       13.398590       1
       14624.988       43.193104       13.787167       1
       14648.011       52.552317       13.529172       1
       14671.034       11.857835       12.793034       1
       14694.057       39.815004       13.473472       1
       14717.080       52.566958       13.864412       1
       14740.104       44.052410       13.399161       1
       14763.127      -20.840812       12.559608       1
       14786.150       46.131740       13.508382       1
       14809.173       42.892059       13.742759       1
       14832.196       29.885967       12.785381       1
       14855.219       48.109638       13.678258       1
       14878.242       52.986272       13.458710       1
       14901.265       49.743501       13.580580       1
       14924.288       48.772193       13.281760       1
       14947.312       51.021652       13.596916       1
       14970.335       53.507597       13.268232       1
       14993.358       50.790935       13.586270       1
       15016.381       50.528016       13.233353       1
       15039.404       3.8735895       12.354229       1
       15062.427       60.820541       13.006066       1
       15085.450       48.042292       13.224848       1
       15108.473       50.957922       12.881469       1
       15131.496       50.770408       13.164464       1
       15154.519       48.715542       3006905.7       1
       15177.543       48.560955       13.189776       1
       15200.566       46.914324       12.655412       1
       15223.589       48.008973       13.050695       1
       15246.612       54.451205       12.733910       1
       15269.635       16.504524       12.151828       1
       15292.658       69.808911       12.855279       1
       15315.681       49.791976       13.076111       1
       15338.704       54.974462       12.733662       1
       15361.727       44.920571       13.024016       1
       15384.751       49.596725       12.627434       1
       15407.774       51.931239       13.010319       1
       15430.797       61.952448       12.739014       1
       15453.820       53.824819       13.069016       1
       15476.843       62.039283       12.766227       1
       15499.866       39.168415       12.208479       1
       15522.889       55.044459       12.673701       1
       15545.912       59.287728       13.034900       1
       15568.935       57.392716       12.614101       1
       15591.958       49.145992       12.873620       1
       15614.982       62.963734       12.705585       1
       15638.005       53.803929       12.904616       1
       15661.028       13.321189       11.630327       1
       15684.051       52.089810       12.907729       1
       15707.074       61.943956       12.924135       1
       15730.097       60.040800       13.176038       1
       15753.120       53.373231       12.814577       1
       15776.143       67.234768       13.185974       1
       15799.166       60.105809       12.833514       1
       15822.190       50.737554       13.117301       1
       15845.213       54.659174       12.751282       1
       15868.236       62.125722       13.152940       1
       15891.259       17.311656       11.990097       1
       15914.282       58.868158       13.061582       1
       15937.305       7.3622473       11.571860       1
       15960.328       62.537482       13.017350       1
       15983.351       63.373843       2806095.9       1
       16006.374       54.017650       13.003748       1
       16029.397       70.512986       13.247477       1
       16052.421       55.768708       12.976130       1
       16075.444       58.707109       12.729206       1
       16098.467       63.537996       13.082522       1
       16121.490       55.365559       12.694559       1
       16144.513       70.097687       13.133355       1
       16167.536       60.283495       12.816956       1
       16190.559       70.013058       13.125862       1
       16213.582       64.341445       12.926902       1
       16236.605       49.986952       12.934575       1
       16259.628       57.082619       12.842177       1
       16282.652       59.497148       12.927620       1
       16305.675       52.505611       12.828656       1
       16328.698       60.490279       12.945295       1
       16351.721       55.713795       12.856963       1
       16374.744       54.777769       12.893890       1
       16397.767       56.042305       12.846991       1
       16420.790       43.897228       12.599250       1
       16443.813       59.873655       12.944110       1
       16466.836       54.294073       12.923231       1
       16489.860       44.872613       12.811310       1
       16512.883       52.711743       13.189348       1
       16535.906       43.080409       13.146942       1
       16558.929       5.1243709       12.523826       1
       16581.952       52.366718       13.664405       1
       16604.975       39.688742       14.290694       1
       16627.998       37.288686       14.524525       1
       16651.021       48.855104       3452904.9       1
       16674.044       50.279929       15.837477       1
       16697.067       50.391712       17.031877       1
       16720.091       32.610906       17.500197       1
       16743.114       34.787709       18.925415       1
       16766.137       35.562477       18.953677       0
       16789.160       34.921050       21.507327       0
       16812.183       49.034455       22.548606       0
       16835.206       49.207390       24.531356       0
       16858.229       30.969469       25.241633       0
       16881.252       76.893230       27.380100       0
       16904.275       32.692345       28.066041       0
       16927.299       84.449484       31.353647       0
       16950.322       37.581230       31.195036       0
       16973.345       37.695614       33.805574       0
       16996.368      -25.694237       34.687566       0
       17019.391       40.974563       37.461796       0
       17042.414       33.568336       38.447032       0
       17065.437       54.948766       41.401230       0
       17088.460      -128.48652       39.776655       0
       17111.483      -19.816015       43.673789       0
       17134.506       163.06943       48.380538       0
       17157.530       57.449553       53.029983       0
       17180.553       220.47322       55.025530       0
       17203.576       233.20885       60.076211       0
       17226.599       192.67728       61.967896       0
       17249.622       154.51318       67.151522       0
       17272.645      -380.29647       62.984415       0
       17295.668       750.16433       75.651668       0
       17318.691       407.18829       75.897284       0
       17341.714       833.92969       83.051860       0
       17364.738       719.62993       82.237981       0
