#WAVELENGTH FLUX ERROR MASK
       7497.9723       3220.2538       421.82542       0
       7510.1303       6206.9337       307.27737       0
       7522.2884       4389.3371       355.20767       0
       7534.4465       6358.0975       262.32044       0
       7546.6045      -408.66502       295.74043       0
       7558.7626       6556.8805       211.41574       0
       7570.9207       604.05333       233.53157       0
       7583.0788       1046.8615       166.73027       0
       7595.2368       472.54462       189.07466       0
       7607.3949       421.51877       138.79237       0
       7619.5530      -389.11745       158.87885       0
       7631.7110       251.29442       118.48754       0
       7643.8691      -1467.4530       136.65749       0
       7656.0272       209.80635       101.74247       0
       7668.1852       869.00397       117.12900       0
       7680.3433       542.15212       85.697693       0
       7692.5014      -1138.7319       97.285869       0
       7704.6594       286.50522       71.712111       0
       7716.8175       214.04620       83.973729       0
       7728.9756       795.99652       66.809089       0
       7741.1336       1002.9238       75.823709       0
       7753.2917       63.170802       60.357965       0
       7765.4498      -18.402356       68.469068       0
       7777.6078       139.68676       55.989582       0
       7789.7659       604.53292       63.671076       0
       7801.9240      -123.61955       47.812767       0
       7814.0821       167.01892       57.463424       0
       7826.2401       49.263855       43.176926       0
       7838.3982       36.702503       51.198942       0
       7850.5563      -91.763594       38.722913       0
       7862.7143      -180.51947       45.667763       0
       7874.8724      -119.63714       44.427718       0
       7887.0305       1.6299999       42.680946       0
       7899.1885       49.299009       35.039623       0
       7911.3466      -23.766183       39.872639       0
       7923.5047      -54.862363       33.034892       0
       7935.6627      -140.51435       37.822844       0
       7947.8208      -25.140902       29.676100       0
       7959.9789       18.231855       36.368786       0
       7972.1369      -37.748540       28.265426       0
       7984.2950       3.3506338       35.045865       0
       7996.4531       178.53029       27.560577       0
       8008.6112      -34.677638       33.564799       0
       8020.7692       102.97302       26.753619       0
       8032.9273      -59.929371       32.618360       0
       8045.0854       61.486878       25.976717       0
       8057.2434       23.903951       32.127247       0
       8069.4015      -31.052006       25.326956       0
       8081.5596       36.177305       31.412313       0
       8093.7176       94.666501       24.971650       0
       8105.8757       59.872862       30.968200       0
       8118.0338       66.280321       24.601900       0
       8130.1918       130.83428       30.649759       0
       8142.3499       30.808357       24.142879       0
       8154.5080      -1.4706714       29.751215       1
       8166.6660       85.514677       23.875864       1
       8178.8241      -13.138623       29.438727       1
       8190.9822      -3.1160379       23.168515       1
       8203.1402       106.01677       29.165234       1
       8215.2983      -26.544539       22.752651       1
       8227.4564       98.587821       28.589701       1
       8239.6145       82.700338       22.393293       1
       8251.7725      -7.6808289       30.704604       1
       8263.9306       49.425577       21.787342       1
       8276.0887       60.040612       27.013270       1
       8288.2467       68.154622       21.385795       1
       8300.4048       79.889939       26.527864       1
       8312.5629       52.218092       20.868667       1
       8324.7209       96.420750       26.028280       1
       8336.8790       32.634247       20.442971       1
       8349.0371       63.879751       25.485252       1
       8361.1951       98.418381       20.367531       1
       8373.3532       39.589696       25.231891       1
       8385.5113       76.528084       20.055262       1
       8397.6693       35.175717       24.607016       1
       8409.8274       42.631320       19.668392       1
       8421.9855       43.472805       24.522628       1
       8434.1435       21.666223       19.345836       1
       8446.3016       29.693040       24.122336       1
       8458.4597       85.203174       19.174177       1
       8470.6178       59.368949       23.879774       1
       8482.7758       65.461425       18.770722       1
       8494.9339       29.828090       23.449970       1
       8507.0920      -3.4622392       18.435023       1
       8519.2500       45.155932       23.161897       1
       8531.4081       61.951383       19.536096       1
       8543.5662       59.159080       22.989078       1
       8555.7242       115.33166       22.340236       1
       8567.8823       66.028861       22.910499       1
       8580.0404       44.173761       18.197669       1
       8592.1984       30.492926       22.708887       1
       8604.3565       43.481734       18.149400       1
       8616.5146       12.741173       22.651486       1
       8628.6726       6.9682877       18.069218       1
       8640.8307       52.467854       22.597353       1
       8652.9888       35.066591       18.016488       1
       8665.1469       34.772032       22.220177       1
       8677.3049       91.389399       17.917571       1
       8689.4630       41.639352       22.112999       1
       8701.6211       45.246486       18.360622       1
       8713.7791       50.820377       21.806592       1
       8725.9372       74.226984       18.185938       1
       8738.0953       72.861464       21.447347       1
       8750.2533       42.766116       17.950996       1
       8762.4114       60.996184       21.181058       1
       8774.5695       53.624269       16.789920       1
       8786.7275       27.609413       20.908172       1
       8798.8856       71.666528       16.771530       1
       8811.0437       51.801310       24.322939       1
       8823.2017       82.333270       17.740525       1
       8835.3598       53.185861       24.051706       1
       8847.5179       30.818623       16.227309       1
       8859.6759       74.980583       20.506463       1
       8871.8340       74.461745       16.286207       1
       8883.9921       62.514896       20.187594       1
       8896.1502       76.590974       16.086300       1
       8908.3082       78.503949       20.134040       1
       8920.4663       69.138538       16.007235       1
       8932.6244       60.448393       19.916235       1
       8944.7824       47.173677       15.788055       1
       8956.9405       47.612051       19.689652       1
       8969.0986       77.660132       15.738610       1
       8981.2566       113.33852       19.646881       1
       8993.4147       69.849374       15.516991       1
       9005.5728       52.938385       19.311770       1
       9017.7308       96.235178       17.718210       1
       9029.8889       60.064339       19.269387       1
       9042.0470       76.015814       16.153548       1
       9054.2050       48.504088       19.110305       1
       9066.3631       86.381820       16.079069       1
       9078.5212       78.579958       19.233353       1
       9090.6792       91.820759       15.341232       1
       9102.8373       108.42530       19.155336       1
       9114.9954       92.385533       15.209943       1
       9127.1535       114.77667       18.908414       1
       9139.3115       105.80093       15.066729       1
       9151.4696       115.22991       18.800604       1
       9163.6277       53.014172       15.378181       1
       9175.7857       104.46982       18.598234       1
       9187.9438       74.452151       14.710859       1
       9200.1019       74.339944       18.272824       1
       9212.2599       100.97275       14.664151       1
       9224.4180       57.405666       18.071673       1
       9236.5761       105.42413       14.580806       1
       9248.7341       103.64711       18.157531       1
       9260.8922       81.756642       16.903208       1
       9273.0503       91.268111       18.070475       1
       9285.2083       99.500172       14.388840       1
       9297.3664       81.076887       5414358.2       1
       9309.5245       85.920391       14.234856       1
       9321.6826       84.368977       17.850511       1
       9333.8406       72.173833       14.203569       1
       9345.9987       74.352074       17.754507       1
       9358.1568       77.224469       14.685046       1
       9370.3148       40.750353       16.011649       1
       9382.4729       67.634925       16.033483       1
       9394.6310       87.413941       17.683398       1
       9406.7890       85.146791       14.039292       1
       9418.9471       101.66144       17.494046       1
       9431.1052       107.40624       14.076962       1
       9443.2632       96.349484       17.407348       1
       9455.4213       122.72430       13.934946       1
       9467.5794       102.18667       17.366316       1
       9479.7374       107.35743       13.804263       1
       9491.8955       92.016946       17.306913       1
       9504.0536       110.94940       16.714751       1
       9516.2116       146.24193       17.257829       1
       9528.3697       92.385294       13.641072       1
       9540.5278       105.96789       17.092372       1
       9552.6859       133.02186       13.675389       1
       9564.8439       120.12896       17.061377       1
       9577.0020       104.15395       14.413998       1
       9589.1601       115.11762       16.808336       1
       9601.3181       126.62043       13.539498       1
       9613.4762       99.949627       16.770424       1
       9625.6343       98.237702       13.358743       1
       9637.7923       91.505900       16.692914       1
       9649.9504       123.48723       14.182953       1
       9662.1085       114.10932       16.760913       1
       9674.2665       83.223768       13.263967       1
       9686.4246       97.832123       16.491357       1
       9698.5827       93.574533       13.251167       1
       9710.7407       85.928846       16.299404       1
       9722.8988       94.198105       13.173212       1
       9735.0569       105.57963       16.453981       1
       9747.2149       120.18935       13.227423       1
       9759.3730       109.64627       16.437943       1
       9771.5311       113.99781       13.128664       1
       9783.6892       112.42525       16.414313       1
       9795.8472       124.16401       13.063852       1
       9808.0053       95.213814       16.330837       1
       9820.1634       106.46898       13.037114       1
       9832.3214       108.27467       16.283449       1
       9844.4795       99.517817       13.008167       1
       9856.6376       120.02497       16.333139       1
       9868.7956       102.64243       12.999985       1
       9880.9537       114.73388       16.326162       1
       9893.1118       95.006530       16.354853       1
       9905.2698       94.967849       16.257921       1
       9917.4279       121.93026       12.947745       1
       9929.5860       103.64255       16.037383       1
       9941.7440       115.55744       12.918727       1
       9953.9021       103.09266       15.847435       1
       9966.0602       127.76929       13.484710       1
       9978.2183       65.262472       14.672960       1
       9990.3763       136.48365       13.297827       1
       10002.534       101.27821       15.806818       1
       10014.692       123.89834       12.694725       1
       10026.851       99.684084       15.728233       1
       10039.009       125.97521       12.680962       1
       10051.167       91.599871       15.623088       1
       10063.325       118.42782       12.660550       1
       10075.483       107.48907       15.834048       1
       10087.641       114.88196       12.645846       1
       10099.799       136.05437       15.887861       1
       10111.957       123.40467       12.664305       1
       10124.115       113.28390       15.724629       1
       10136.273       100.15071       12.536095       1
       10148.431       100.69309       15.660470       1
       10160.589       102.09790       12.544463       1
       10172.747       111.74640       15.650047       1
       10184.905       101.19342       12.475295       1
       10197.063       99.584564       15.541193       1
       10209.222       108.79905       12.455409       1
       10221.380       100.46004       15.516691       1
       10233.538       118.25633       12.435479       1
       10245.696       82.866368       15.435797       1
       10257.854       115.00125       12.400498       1
       10270.012       105.95495       15.265378       1
       10282.170       109.18971       12.441370       1
       10294.328       127.19779       15.457335       1
       10306.486       117.00883       12.285282       1
       10318.644       108.33050       15.341503       1
       10330.802       118.05611       12.217585       1
       10342.960       116.71042       15.317959       1
       10355.118       109.54899       12.137620       1
       10367.276       118.86248       15.200533       1
       10379.435       119.63488       14.285308       1
       10391.593       98.293772       15.141368       1
       10403.751       103.49355       12.083549       1
       10415.909       109.60047       15.342152       1
       10428.067       114.98120       12.145089       1
       10440.225       116.84821       15.299475       1
       10452.383       117.48981       12.091915       1
       10464.541       102.31790       15.029238       1
       10476.699       128.03433       12.151584       1
       10488.857       108.89999       15.179938       1
       10501.015       110.80598       12.079741       1
       10513.173       108.06152       15.048280       1
       10525.331       113.23531       12.122676       1
       10537.489       96.754304       15.096681       1
       10549.647       125.99337       12.772327       1
       10561.806       106.41490       15.088359       1
       10573.964       110.93203       15.263962       1
       10586.122       91.666489       15.104441       1
       10598.280       115.18765       12.830290       1
       10610.438       101.55360       15.021483       1
       10622.596       113.70872       12.084315       1
       10634.754       109.88919       14.997835       1
       10646.912       124.27114       11.974787       1
       10659.070       107.04024       14.971183       1
       10671.228       105.40950       11.924529       1
       10683.386       119.39451       14.947828       1
       10695.544       120.96238       15.083141       1
       10707.702       107.13156       14.911848       1
       10719.860       108.40192       11.897535       1
       10732.018       105.75892       14.927360       1
       10744.177       109.87697       11.923350       1
       10756.335       59.540595       12.635908       1
       10768.493       104.83012       11.898345       1
       10780.651       106.53525       14.885884       1
       10792.809       114.99668       11.911238       1
       10804.967       80.282608       14.622913       1
       10817.125       125.54348       11.989700       1
       10829.283       104.52303       14.837824       1
       10841.441       110.39586       11.854885       1
       10853.599       117.20237       14.939199       1
       10865.757       125.33721       11.897543       1
       10877.915       102.98547       14.715790       1
       10890.073       113.17206       11.752581       1
       10902.231       113.35524       14.753672       1
       10914.390       108.68465       12.252697       1
       10926.548       93.441247       14.616823       1
       10938.706       106.89862       12.246329       1
       10950.864       95.241365       14.665029       1
       10963.022       94.821585       11.815828       1
       10975.180       110.83647       14.697129       1
       10987.338       93.246200       11.701684       1
       10999.496       94.130413       14.701247       1
       11011.654       97.823069       12.213728       1
       11023.812       95.822888       14.691245       1
       11035.970       101.29053       11.766620       1
       11048.128       88.021432       14.525313       1
       11060.286       101.28029       11.719776       1
       11072.444       104.66708       14.655876       1
       11084.602       100.47298       11.688230       1
       11096.761       85.652563       14.569538       1
       11108.919       97.527836       11.747681       1
       11121.077       87.721185       14.637420       1
       11133.235       86.752276       11.646826       1
       11145.393       115.76761       14.707146       1
       11157.551       104.80745       11.760651       1
       11169.709       104.48065       14.616524       1
       11181.867       81.678321       11.733984       1
       11194.025       92.058048       14.665315       1
       11206.183       103.57965       11.754172       0
       11218.341       86.895321       14.589871       0
       11230.499       104.52292       11.715097       0
       11242.657       106.54079       14.601559       0
       11254.815       105.74435       11.645638       0
       11266.974       108.05165       14.582544       0
       11279.132       108.04615       11.637197       0
       11291.290       98.470508       14.521253       0
       11303.448       113.30228       11.626327       0
       11315.606       90.746396       14.430578       0
       11327.764       122.70416       11.660830       0
       11339.922       100.38920       14.557131       0
       11352.080       109.56574       11.849088       0
       11364.238       96.374007       15.135102       0
       11376.396       77.716466       12.274024       0
       11388.554       100.65225       15.954468       0
       11400.712       79.515304       16.079766       0
       11412.870       90.142205       17.216435       0
       11425.028       70.894801       14.611266       0
       11437.186       61.937463       19.339645       0
       11449.345       67.296909       16.456126       0
       11461.503       41.924863       21.960357       0
       11473.661       64.382669       18.579364       0
       11485.819       87.511510       24.716797       0
       11497.977       21.402037       20.640575       0
       11510.135       37.452362       27.181467       0
       11522.293       39.603483       22.875729       0
       11534.451       98.076204       30.532946       0
       11546.609       58.640832       26.023155       0
       11558.767       76.331178       35.015670       0
       11570.925       66.372755       32.779528       0
       11583.083       162.30499       42.447297       0
       11595.241       42.382273       37.650862       0
       11607.399       31.858328       52.333830       0
       11619.558      -91.212652       46.448047       0
       11631.716       311.93919       64.634791       0
       11643.874      -5.3948859       56.663194       0
       11656.032       689.08672       78.431058       0
       11668.190      -744.63889       68.319050       0
       11680.348      -853.78147       97.323630       0
       11692.506       525.75781       89.779286       0
       11704.664       213.07427       126.36275       0
       11716.822      -310.56165       118.06184       0
       11728.980       1996.6019       166.14803       0
       11741.138      -1070.8943       144.99961       0
       11753.296      -1088.1533       192.07168       0
       11765.454       1120.0590       156.96836       0
       11777.612      -2727.7979       194.00003       0
       11789.770      -1303.7172       153.47830       0
       11801.929      -512.77033       188.69757       0
       11814.087       166.28389       152.73618       0
       11826.245      -4593.8057       195.78929       0
       11838.403      -16.125361       165.76196       0
       11850.561       3958.3564       225.62017       0
       11862.719      -374.13309       222.44158       0
