#WAVELENGTH FLUX ERROR MASK
       7504.5434      -4849.0218       276.87232       0
       7516.7318      -41300.822       269.41626       0
       7528.9202      -2349.4128       243.13663       0
       7541.1087      -335.41775       266.80875       0
       7553.2971      -1310.8796       191.01203       0
       7565.4855       1229.6035       213.19611       0
       7577.6740       693.30818       151.74920       0
       7589.8624      -1068.4852       169.61768       0
       7602.0508       198.31332       143.72754       0
       7614.2393       4.0565646       145.15926       0
       7626.4277       348.63378       111.94172       0
       7638.6161      -24.831425       124.59581       0
       7650.8046      -367.16342       93.192288       0
       7662.9930       75.933239       106.94299       0
       7675.1815       44.429996       78.600165       0
       7687.3699       29.211957       89.131179       0
       7699.5583      -280.96775       69.873849       0
       7711.7468      -176.53186       75.252981       0
       7723.9352       276.99371       58.429846       0
       7736.1236      -93.918326       66.672748       0
       7748.3121      -102.19180       50.864701       0
       7760.5005       144.01557       61.181246       0
       7772.6889      -73.921402       48.129148       0
       7784.8774       168.31110       56.386300       0
       7797.0658       42.755891       43.849255       0
       7809.2542       95.977840       51.058636       0
       7821.4427       1.7729860       38.937898       0
       7833.6311       54.659708       45.684935       0
       7845.8195       55.551207       35.025817       0
       7858.0080       40.139514       41.319649       0
       7870.1964       43.233759       31.817672       0
       7882.3849       38.670781       37.866608       0
       7894.5733       23.545782       29.456540       0
       7906.7617      -122.80489       33.331237       0
       7918.9502       15.480389       27.571233       0
       7931.1386       43.965855       33.451350       0
       7943.3270       35.240110       26.337160       0
       7955.5155      -25.099187       31.822880       0
       7967.7039       84.244502       25.250541       0
       7979.8923       62.476189       30.667427       0
       7992.0808       12.082553       24.103472       0
       8004.2692       26.630897       29.666293       0
       8016.4576      -13.598594       23.368871       0
       8028.6461      -81.165354       27.058591       0
       8040.8345       74.151738       22.953590       0
       8053.0229       22.225239       28.046454       0
       8065.2114       92.367130       22.417015       0
       8077.3998       55.574137       27.570862       0
       8089.5883       73.122846       22.841599       0
       8101.7767       55.532293       27.006481       0
       8113.9651       17.176849       21.313690       0
       8126.1536       46.898480       26.349157       0
       8138.3420       69.551851       21.046060       0
       8150.5304       72.935469       25.787367       1
       8162.7189       19.539034       20.401279       1
       8174.9073       74.122079       25.384929       1
       8187.0957       55.685515       20.409061       1
       8199.2842       76.289504       24.936700       1
       8211.4726       24.265136       19.627386       1
       8223.6610       52.980933       24.302662       1
       8235.8495       34.608761       19.215462       1
       8248.0379       63.881779       23.698050       1
       8260.2263       40.230979       18.739145       1
       8272.4148       42.228280       23.020272       1
       8284.6032       53.850708       18.290674       1
       8296.7917       65.131425       22.708259       1
       8308.9801       53.195882       18.764206       1
       8321.1685       84.276767       22.345752       1
       8333.3570       47.645327       17.832344       1
       8345.5454       71.023299       22.040765       1
       8357.7338       67.125927       17.806709       1
       8369.9223       59.811113       21.652377       1
       8382.1107       52.160126       17.627578       1
       8394.2991      -13.433851       19.961805       1
       8406.4876       43.565637       17.198284       1
       8418.6760       73.287350       20.938097       1
       8430.8644       28.167627       19.369501       1
       8443.0529       15.540673       20.698020       1
       8455.2413       69.706514       16.659707       1
       8467.4297       5.5738987       19.197335       1
       8479.6182       52.138815       16.385237       1
       8491.8066       73.034921       20.274085       1
       8503.9951       30.350166       16.135476       1
       8516.1835       39.645988       19.996758       1
       8528.3719       44.343599       16.659445       1
       8540.5604       84.120619       20.181309       1
       8552.7488       1.4217021       19.645951       1
       8564.9372       68.299083       19.621473       1
       8577.1257       42.342658       16.216912       1
       8589.3141       63.702635       19.774237       1
       8601.5025       40.630321       15.668650       1
       8613.6910       13.295251       19.409968       1
       8625.8794       43.840724       15.660013       1
       8638.0678       61.139939       19.429728       1
       8650.2563       35.060648       16.109389       1
       8662.4447       47.135070       19.249242       1
       8674.6331       34.069241       15.824254       1
       8686.8216       57.840752       18.996990       1
       8699.0100       27.386600       15.107255       1
       8711.1985       33.955672       18.625505       1
       8723.3869       25.147041       16.260057       1
       8735.5753       73.002884       18.427092       1
       8747.7638       47.446653       14.642371       1
       8759.9522       56.598800       18.112745       1
       8772.1406       27.048063       14.458564       1
       8784.3291       71.495380       18.007151       1
       8796.5175       46.350549       14.410192       1
       8808.7059       35.806403       17.704692       1
       8820.8944       56.707986       14.274311       1
       8833.0828       50.507837       17.678474       1
       8845.2712       41.426848       14.080925       1
       8857.4597       50.621775       17.481792       1
       8869.6481       62.003436       14.047002       1
       8881.8365       45.079646       17.278132       1
       8894.0250       84.014823       13.932351       1
       8906.2134       39.793433       17.151442       1
       8918.4019       58.059857       14.113660       1
       8930.5903       54.192857       17.039768       1
       8942.7787       53.807799       13.680040       1
       8954.9672       30.592989       16.856456       1
       8967.1556       55.816683       13.580464       1
       8979.3440       43.602074       16.726951       1
       8991.5325       33.645777       13.400421       1
       9003.7209       62.112934       16.801895       1
       9015.9093       41.256159       13.494596       1
       9028.0978       40.136464       16.654105       1
       9040.2862       60.957595       13.507984       1
       9052.4746       23.562024       16.596301       1
       9064.6631       52.916751       13.469034       1
       9076.8515       63.309689       16.673238       1
       9089.0399       40.815154       13.308550       1
       9101.2284       21.551697       16.368541       1
       9113.4168       57.214513       13.235323       1
       9125.6053       34.650063       16.362937       1
       9137.7937       49.572868       13.289507       1
       9149.9821       48.598889       16.272782       1
       9162.1706       30.258944       13.094937       1
       9174.3590       58.627259       16.073077       1
       9186.5474       42.207369       13.038863       1
       9198.7359       63.241300       15.916100       1
       9210.9243       46.594964       12.800685       1
       9223.1127       43.506822       15.909851       1
       9235.3012       61.530734       12.462037       1
       9247.4896       33.567471       15.326064       1
       9259.6780       56.205747       12.346958       1
       9271.8665       42.971792       15.298136       1
       9284.0549       58.025878       12.304917       1
       9296.2433       56.508324       15.334023       1
       9308.4318       50.940238       12.276127       1
       9320.6202       69.370547       15.240799       1
       9332.8087       56.255514       12.316324       1
       9344.9971       41.289407       15.040881       1
       9357.1855       56.344762       12.694987       1
       9369.3740       46.880103       15.036888       1
       9381.5624       68.385313       12.145443       1
       9393.7508       62.409833       15.034314       1
       9405.9393       51.319874       13.886716       1
       9418.1277       45.211900       14.890919       1
       9430.3161       56.699977       11.993388       1
       9442.5046       54.849304       14.888972       1
       9454.6930       37.663436       13.207580       1
       9466.8814       67.939016       15.010555       1
       9479.0699       62.684569       15.283073       1
       9491.2583       80.128423       14.897629       1
       9503.4467       50.002638       13.086082       1
       9515.6352       66.760263       14.862725       1
       9527.8236       52.431199       11.845068       1
       9540.0121       40.518671       14.688517       1
       9552.2005       51.744409       11.821076       1
       9564.3889       68.278803       14.786769       1
       9576.5774       65.242987       11.773691       1
       9588.7658       48.605429       14.570359       1
       9600.9542       41.928862       11.662459       1
       9613.1427       50.634202       14.483759       1
       9625.3311       50.240422       11.965117       1
       9637.5195       38.228649       14.413551       1
       9649.7080       42.878691       11.610544       1
       9661.8964       47.556840       14.416003       1
       9674.0848       60.858252       11.570917       1
       9686.2733       25.650403       13.423762       1
       9698.4617       65.325457       11.696690       1
       9710.6501       11.056331       13.450876       1
       9722.8386       42.526597       12.952144       1
       9735.0270       45.249175       14.231748       1
       9747.2155       57.759516       11.457315       1
       9759.4039       63.282769       14.253959       1
       9771.5923       53.911756       12.784577       1
       9783.7808       74.641538       14.197707       1
       9795.9692       67.862207       11.667939       1
       9808.1576       40.956470       14.027528       1
       9820.3461       66.296044       11.498131       1
       9832.5345       39.743315       14.003851       1
       9844.7229       53.240507       11.418937       1
       9856.9114       50.818804       14.011700       1
       9869.0998       55.325591       11.756765       1
       9881.2882       36.925747       13.964761       1
       9893.4767       53.688984       13.254942       1
       9905.6651      -10.841884       12.876494       1
       9917.8535       67.554389       11.321827       1
       9930.0420       67.406641       13.943541       1
       9942.2304       46.987508       11.105777       1
       9954.4189       34.249580       13.697465       1
       9966.6073       55.415136       11.090109       1
       9978.7957       65.668386       4111814.5       1
       9990.9842       62.993694       11.385790       1
       10003.173       56.838680       13.561979       1
       10015.361       45.626935       10.943260       1
       10027.549       62.255094       13.493323       1
       10039.738       48.172210       10.885113       1
       10051.926       51.548993       13.460536       1
       10064.115       42.977481       10.867623       1
       10076.303       29.320205       13.217539       1
       10088.492       47.555678       10.908549       1
       10100.680       48.763124       13.252354       1
       10112.869       42.683825       10.859566       1
       10125.057       42.212664       13.205422       1
       10137.245       57.199695       10.855840       1
       10149.434       30.769708       13.274383       1
       10161.622       47.705245       10.937171       1
       10173.811       56.152796       13.434148       1
       10185.999       59.323988       10.997490       1
       10198.188       51.264717       13.434945       1
       10210.376       50.740029       10.905719       1
       10222.564       81.453446       13.475140       1
       10234.753       59.207613       10.870641       1
       10246.941       52.248963       13.628799       1
       10259.130       51.517590       10.757534       1
       10271.318       48.214886       13.261502       1
       10283.507       47.000369       10.802336       1
       10295.695       72.815600       13.289822       1
       10307.883       54.083202       11.815737       1
       10320.072       61.790073       12.973034       1
       10332.260       61.167867       11.764035       1
       10344.449       34.972596       13.058829       1
       10356.637       59.489714       10.582961       1
       10368.826       50.177396       13.089580       1
       10381.014       67.479213       10.611453       1
       10393.203       70.777606       13.090447       1
       10405.391       60.689762       10.452123       1
       10417.579       54.415379       12.952058       1
       10429.768       64.505167       10.542447       1
       10441.956       80.243079       13.109332       1
       10454.145       72.592940       10.496115       1
       10466.333       65.175891       13.018697       1
       10478.522       68.851417       10.617151       1
       10490.710       55.481907       12.930834       1
       10502.898       74.099410       10.469392       1
       10515.087       64.364220       12.943892       1
       10527.275       59.778221       11.923676       1
       10539.464       74.913137       12.927913       1
       10551.652       65.865141       10.465121       1
       10563.841       56.993316       12.843337       1
       10576.029       59.461712       10.425502       1
       10588.217       62.129073       12.812149       1
       10600.406       71.677026       10.471617       1
       10612.594       65.625870       12.854598       1
       10624.783       67.782014       10.697150       1
       10636.971       42.933552       12.678373       1
       10649.160       70.969741       10.304884       1
       10661.348       57.296201       12.671169       1
       10673.537       67.063359       10.173128       1
       10685.725       71.537725       12.745858       1
       10697.913       64.328065       10.146090       1
       10710.102       54.445477       12.624296       1
       10722.290       69.679674       10.188861       1
       10734.479       65.818529       12.520177       1
       10746.667       79.559558       10.161178       1
       10758.856       71.209879       12.614254       1
       10771.044       65.475926       10.061831       1
       10783.232       67.051929       12.645086       1
       10795.421       63.203592       10.055114       1
       10807.609       56.548229       12.544559       1
       10819.798       69.287367       10.019974       1
       10831.986       55.162416       12.490598       1
       10844.175       69.313124       11.252311       1
       10856.363       40.740202       11.678201       1
       10868.552       55.242883       10.132598       1
       10880.740       57.479440       12.627802       1
       10892.928       64.793570       10.152617       1
       10905.117       80.863055       12.681841       1
       10917.305       52.894033       10.120085       1
       10929.494       58.030277       12.655946       1
       10941.682       65.792749       11.324663       1
       10953.871       65.903990       12.686455       1
       10966.059       54.579774       10.318720       1
       10978.247       63.924293       12.562013       1
       10990.436       55.511685       10.337349       1
       11002.624       72.126622       12.586978       1
       11014.813       59.964754       10.068132       1
       11027.001       72.365722       12.550936       1
       11039.190       48.771540       10.025293       1
       11051.378       45.217158       12.407364       1
       11063.566       53.941892       10.011513       1
       11075.755       53.915985       12.459589       1
       11087.943       64.075026       10.013335       1
       11100.132       66.164726       12.121585       1
       11112.320       65.625404       9.7061237       1
       11124.509       52.836344       12.094559       1
       11136.697       76.276106       9.7369483       1
       11148.886       67.441130       12.164180       1
       11161.074       64.792111       9.6864329       1
       11173.262       71.930079       12.180557       1
       11185.451       74.327455       9.7371266       1
       11197.639       67.638018       12.212601       1
       11209.828       78.811190       9.7765704       0
       11222.016       60.770321       12.106815       0
       11234.205       65.333320       9.7239254       0
       11246.393       74.295170       12.131411       0
       11258.581       63.451368       9.6451469       0
       11270.770       57.250859       12.122478       0
       11282.958       63.314687       9.8202390       0
       11295.147       53.226156       12.071288       0
       11307.335       60.030153       9.7205041       0
       11319.524       51.120513       12.112815       0
       11331.712       62.482445       9.9990780       0
       11343.900       51.653405       12.428993       0
       11356.089       61.862993       10.303758       0
       11368.277       49.244728       13.080493       0
       11380.466       47.074508       10.824295       0
       11392.654       58.465802       14.027438       0
       11404.843       58.975618       11.804858       0
       11417.031       79.401282       15.531426       0
       11429.220       60.425108       13.141939       0
       11441.408       94.405862       17.556535       0
       11453.596       60.891347       14.933772       0
       11465.785       71.277642       19.750424       0
       11477.973       70.649937       16.874929       0
       11490.162       53.915280       22.000777       0
       11502.350       47.947388       18.612555       0
       11514.539       114.41937       24.443972       0
       11526.727       91.373977       20.644349       0
       11538.915      -94.455905       25.248125       0
       11551.104       38.244920       23.559323       0
       11563.292       167.12712       32.115345       0
       11575.481       59.883412       28.254440       0
       11587.669       7.7938166       38.449061       0
       11599.858       208.75221       35.058663       0
       11612.046      -105.75475       45.704908       0
       11624.234       167.27977       42.893362       0
       11636.423       138.19854       58.902100       0
       11648.611       214.32157       52.305828       0
       11660.800       200.47943       70.964545       0
       11672.988       667.23513       64.223051       0
       11685.177       900.05282       91.144168       0
       11697.365       229.81999       83.072911       0
       11709.554       2596.5217       118.15378       0
       11721.742       1923.4357       108.80105       0
       11733.930       1967.0049       151.89156       0
       11746.119       6765.4535       133.48932       0
       11758.307       3994.4849       166.55623       0
       11770.496       4122.5824       134.34679       0
       11782.684       2223.8196       162.14508       0
       11794.873       2246.7874       134.26808       0
       11807.061       3619.9988       160.24733       0
       11819.249       2713.4902       131.08154       0
       11831.438       8167.9800       175.31905       0
       11843.626       3820.2103       146.65734       0
       11855.815       5770.4184       197.70289       0
       11868.003       4576.0821       172.76941       0
       11880.192       1540.5170       232.53139       0
