#WAVELENGTH FLUX ERROR MASK
       7516.5909      -16873.647       314.68720       0
       7528.8901      -11831.463       238.07464       0
       7541.1892       2216.8478       269.53396       0
       7553.4884       676.17116       195.34368       0
       7565.7876       11624.222   1.2432836e+08       0
       7578.0867      -2639.4236       154.19063       0
       7590.3859       5080.9102       171.53510       0
       7602.6851       3326.5040       127.46279       0
       7614.9842      -384.32010       141.63754       0
       7627.2834      -694.94056       107.12458       0
       7639.5825       565.64602       122.27299       0
       7651.8817      -987.49474       91.990978       0
       7664.1809      -1396.9944       103.41971       0
       7676.4800       1249.7806       107.39411       0
       7688.7792       853.88193       87.230914       0
       7701.0784       245.45587       64.912756       0
       7713.3775       717.43267       73.682213       0
       7725.6767      -113.28256       56.169918       0
       7737.9759       362.39820       65.414995       0
       7750.2750       104.39134       50.664617       0
       7762.5742       960.15484       60.315927       0
       7774.8733       88.499039       46.828352       0
       7787.1725       289.78556       54.951559       0
       7799.4717       422.24369       43.020205       0
       7811.7708       473.47703       49.871307       0
       7824.0700      -143.31807       38.442952       0
       7836.3692       428.91498       44.193661       0
       7848.6683       156.89374       34.488112       0
       7860.9675       147.30807       40.226935       0
       7873.2666       94.041320       31.118097       0
       7885.5658       224.56536       36.997735       0
       7897.8650       126.18660       29.167202       0
       7910.1641       12.007208       34.428575       0
       7922.4633       159.68832       27.670985       0
       7934.7625       33.162282       32.688624       0
       7947.0616       109.79557       26.106944       0
       7959.3608       125.02912       31.458384       0
       7971.6600       73.835759       24.989934       0
       7983.9591       90.274748       29.902678       0
       7996.2583       131.30930       24.226092       0
       8008.5574       162.44466       29.282141       0
       8020.8566       129.30134       23.416086       0
       8033.1558       245.13221       28.605051       0
       8045.4549       243.89028       22.918421       0
       8057.7541       197.52811       27.863694       0
       8070.0533       78.058496       22.368040       0
       8082.3524       51.051740       27.102841       0
       8094.6516       226.95916       22.290183       0
       8106.9508       103.97142       26.744035       0
       8119.2499       84.395134       21.574829       0
       8131.5491       59.856431       26.322287       0
       8143.8482       54.069629       21.421623       0
       8156.1474      -19.956881       25.569477       1
       8168.4466       176.02461       21.090360       1
       8180.7457       183.88360       25.740889       1
       8193.0449       140.44224       20.405782       1
       8205.3441       129.22229       24.879117       1
       8217.6432       103.42069       20.008145       1
       8229.9424      -6.8542252       24.044099       1
       8242.2415       83.207313       19.551482       1
       8254.5407       103.07804       23.828154       1
       8266.8399       49.337235       18.957973       1
       8279.1390       82.472802       22.959974       1
       8291.4382       137.51060       18.707964       1
       8303.7374       197.24022       22.903356       1
       8316.0365       124.64655       18.367092       1
       8328.3357       77.495475       21.964269       1
       8340.6349       148.75862       18.073814       1
       8352.9340       101.73426       21.812738       1
       8365.2332       40.248378       17.535441       1
       8377.5323       72.479879       21.561442       1
       8389.8315       64.046385       15.050106       1
       8402.1307       49.729428       18.888487       1
       8414.4298       151.14157       15.023485       1
       8426.7290       143.66498       18.795220       1
       8439.0282       23.403824       14.560549       1
       8451.3273       77.512137       18.389994       1
       8463.6265       74.776356       14.390615       1
       8475.9257       101.22920       18.260834       1
       8488.2248       88.300659       14.220005       1
       8500.5240       100.53698       17.981310       1
       8512.8231       151.22748       14.771671       1
       8525.1223       80.088513       17.758699       1
       8537.4215       72.018611       16.005751       1
       8549.7206       97.845594       17.665293       1
       8562.0198       143.43675       14.529112       1
       8574.3190       59.440147       17.441770       1
       8586.6181       153.95264       13.966635       1
       8598.9173       101.55904       17.524066       1
       8611.2164       66.450781       13.607586       1
       8623.5156       82.570344       17.564163       1
       8635.8148       158.55218       13.900897       1
       8648.1139       110.66711       17.281807       1
       8660.4131       134.56120       13.729273       1
       8672.7123       91.040437       17.153877       1
       8685.0114       76.812333       13.459870       1
       8697.3106       113.73006       17.000535       1
       8709.6098       109.13133       13.216991       1
       8721.9089       93.585609       16.652235       1
       8734.2081       103.11978       12.975490       1
       8746.5072       157.48829       16.529924       1
       8758.8064       102.21488       12.830335       1
       8771.1056       118.66116       16.840220       1
       8783.4047       142.57595       12.859716       1
       8795.7039       154.92614       16.624650       1
       8808.0031       78.343883       12.576226       1
       8820.3022       128.59671       16.022677       1
       8832.6014       166.92244       12.689464       1
       8844.9006       131.65214       15.802855       1
       8857.1997       86.831157       12.346594       1
       8869.4989       136.37444       15.685534       1
       8881.7980       101.14167       12.233516       1
       8894.0972       126.77427       15.455784       1
       8906.3964       94.889514       12.082307       1
       8918.6955       151.94406       15.527812       1
       8930.9947       171.98983       12.235036       1
       8943.2939       162.62365       15.399959       1
       8955.5930       127.84046       12.066216       1
       8967.8922       117.61440       15.134771       1
       8980.1913       115.81213       11.892277       1
       8992.4905       115.34787       14.916248       1
       9004.7897       124.12927       11.819521       1
       9017.0888       150.05410       15.014019       1
       9029.3880       157.37153       11.865523       1
       9041.6872       135.08044       14.911448       1
       9053.9863       123.90612       11.749107       1
       9066.2855       162.14223       14.952988       1
       9078.5847       148.11737       11.733683       1
       9090.8838       172.08587       14.817203       1
       9103.1830       163.55002       11.710226       1
       9115.4821       149.61827       14.690810       1
       9127.7813       165.89339       11.582893       1
       9140.0805       171.65053       14.616333       1
       9152.3796       162.99556       11.471765       1
       9164.6788       127.32946       14.199295       1
       9176.9780       132.74516       11.143163       1
       9189.2771       182.67123       14.357755       1
       9201.5763       139.44777       11.195228       1
       9213.8755       148.13575       14.120148       1
       9226.1746       200.10576       11.284046       1
       9238.4738       131.53697       13.944530       1
       9250.7729       156.68128       11.094101       1
       9263.0721       170.62702       14.037653       1
       9275.3713       121.85400       10.923962       1
       9287.6704       146.67025       15.462178       1
       9299.9696       136.58929       12.627766       1
       9312.2688       129.19927       15.310409       1
       9324.5679       107.23778       12.403643       1
       9336.8671       133.54184       15.210112       1
       9349.1662       139.72390       12.455087       1
       9361.4654       139.07368       15.225481       1
       9373.7646       143.80448       12.431906       1
       9386.0637       132.62318       15.172006       1
       9398.3629       135.07056       12.347930       1
       9410.6621       157.92939       15.040771       1
       9422.9612       133.51562       12.230531       1
       9435.2604       166.76045       15.002700       1
       9447.5596       167.00502       12.170818       1
       9459.8587       130.32159       14.679380       1
       9472.1579       153.05962       11.637995       1
       9484.4570       172.54715       14.934514       1
       9496.7562       181.24746       11.968204       1
       9509.0554       178.21707       14.862041       1
       9521.3545       158.99600       12.019023       1
       9533.6537       140.45873       14.629202       1
       9545.9529       177.53922       12.019230       1
       9558.2520       168.51298       14.712399       1
       9570.5512       189.36339       11.973652       1
       9582.8504       196.81739       14.750716       1
       9595.1495       193.57419       12.021587       1
       9607.4487       177.90748       14.102420       1
       9619.7478       192.05588       11.906917       1
       9632.0470       177.43929       14.428982       1
       9644.3462       193.51505       11.932913       1
       9656.6453       197.01139       14.575656       1
       9668.9445       207.67007       16.758195       1
       9681.2437       165.48554       14.361126       1
       9693.5428       142.44850       11.557949       1
       9705.8420       155.38576       14.308127       1
       9718.1411       184.87702       11.738177       1
       9730.4403       184.71826       14.269651       1
       9742.7395       153.34629       11.547812       1
       9755.0386       194.26376       14.262860       1
       9767.3378       191.60802       12.995730       1
       9779.6370       194.60706       7862346.0       1
       9791.9361       163.50336       11.412243       1
       9804.2353       205.05361       14.334218       1
       9816.5345       195.64793       11.630043       1
       9828.8336       206.87427       14.216983       1
       9841.1328       187.58200       12.873103       1
       9853.4319       219.52597       14.282484       1
       9865.7311       191.26085       11.534640       1
       9878.0303       202.76331       14.224661       1
       9890.3294       194.00575       16.501755       1
       9902.6286       209.19955       14.135544       1
       9914.9278       189.82928       11.513039       1
       9927.2269       202.45284       14.116966       1
       9939.5261       213.73868       11.579576       1
       9951.8253       204.94907       14.091754       1
       9964.1244       224.21006       12.035101       1
       9976.4236       226.37029       14.162281       1
       9988.7227       190.96606       11.423937       1
       10001.022       199.89421       14.008457       1
       10013.321       200.02969       12.709639       1
       10025.620       234.65415       14.102803       1
       10037.919       223.81010       11.513824       1
       10050.219       281.01690       14.296342       1
       10062.518       318.46752       11.861593       1
       10074.817       290.08067       14.443462       1
       10087.116       339.98148       12.039623       1
       10099.415       281.44757       14.508337       1
       10111.714       307.65182       11.944067       1
       10124.014       253.04659       14.580664       1
       10136.313       258.26062       11.937590       1
       10148.612       209.82359       14.379311       1
       10160.911       196.26991       11.684582       1
       10173.210      -97.119377       8.9574046       1
       10185.509       142.45837       10.175655       1
       10197.809       106.20516       12.389909       1
       10210.108       128.60381       9.7570801       1
       10222.407       107.47938       12.186497       1
       10234.706       117.65776       9.5755028       1
       10247.005       145.58712       12.135960       1
       10259.304       154.68064       9.5803077       1
       10271.603       174.21645       12.126418       1
       10283.903       153.82087       9.4718290       1
       10296.202       171.28328       12.040412       1
       10308.501       140.89163       9.3920348       1
       10320.800       166.80295       11.888262       1
       10333.099       160.11167       9.4055137       1
       10345.398       186.80945       12.024380       1
       10357.698       177.47830       9.4220702       1
       10369.997       168.41998       11.817242       1
       10382.296       158.86201       9.3657188       1
       10394.595       198.33291       11.994906       1
       10406.894       204.21686       9.5097596       1
       10419.193       182.72346       11.878223       1
       10431.493       190.98828       9.4095427       1
       10443.792       193.77785       11.943616       1
       10456.091       178.52361       10.459423       1
       10468.390       213.80772       11.982123       1
       10480.689       197.76096       9.4186172       1
       10492.988       201.19696       11.920322       1
       10505.288       197.73508       9.4315979       1
       10517.587       177.53632       11.846148       1
       10529.886       183.35162       9.3664281       1
       10542.185       197.81767       11.874081       1
       10554.484       189.87118       9.3605855       1
       10566.783       173.13270       11.777103       1
       10579.083       206.11521       9.4891990       1
       10591.382       210.97919       11.958616       1
       10603.681       199.18018       9.4015455       1
       10615.980       225.86894       11.877102       1
       10628.279       191.48733       9.2928118       1
       10640.578       223.10174       11.856961       1
       10652.878       198.24281       9.3190393       1
       10665.177       206.91861       11.788883       1
       10677.476       203.89270       9.3147207       1
       10689.775       224.31274       11.854502       1
       10702.074       202.96932       9.2745852       1
       10714.373       217.84433       11.728267       1
       10726.673       193.74523       9.1998891       1
       10738.972       226.43897       11.850420       1
       10751.271       223.37723       9.2969513       1
       10763.570       227.47097       11.805999       1
       10775.869       224.71108       9.3233115       1
       10788.168       222.84145       12.141220       1
       10800.468       224.05211       9.3336412       1
       10812.767       237.74063       12.167971       1
       10825.066       246.57814       9.3583213       1
       10837.365       248.13884       7002923.3       1
       10849.664       222.97347       9.3038382       1
       10861.963       232.11457       11.711867       1
       10874.262       221.27636       9.2401585       1
       10886.562       203.10071       11.602161       1
       10898.861       228.03078       9.9029513       1
       10911.160       233.31764       11.612052       1
       10923.459       260.85842       9.9440580       1
       10935.758       241.91942       11.671830       1
       10948.057       265.08670       9.4235680       1
       10960.357       223.66005       11.635169       1
       10972.656       222.82457       9.2140059       1
       10984.955       216.83963       11.672235       1
       10997.254       236.53609       9.2969144       1
       11009.553       251.20183       11.781757       1
       11021.852       259.92172       9.3766981       1
       11034.152       233.78276       11.719974       1
       11046.451       233.77488       9.2406950       1
       11058.750       252.18753       11.735872       1
       11071.049       182.99713       10.359617       1
       11083.348       208.25565       12.835983       1
       11095.647       196.51980       10.377830       1
       11107.947       173.64604       12.652805       1
       11120.246       173.67602       10.338434       1
       11132.545       174.40713       12.745628       1
       11144.844       191.34295       10.425790       1
       11157.143       201.90462       12.805030       1
       11169.442       165.44833       10.332079       1
       11181.742       201.95900       12.848074       1
       11194.041       185.29452       10.388507       1
       11206.340       204.46830       12.808905       0
       11218.639       196.01099       10.420479       0
       11230.938       211.57601       12.791913       0
       11243.237       201.13854       10.444877       0
       11255.537       195.28839       12.697096       0
       11267.836       192.72416       10.418731       0
       11280.135       195.53179       12.787841       0
       11292.434       177.31416       10.351756       0
       11304.733       169.22788       12.557226       0
       11317.032       177.07854       10.349216       0
       11329.332       184.97910       12.860436       0
       11341.631       171.33648       10.503913       0
       11353.930       194.91774       13.066532       0
       11366.229       191.58687       10.914538       0
       11378.528       183.07235       13.658895       0
       11390.827       178.96346       11.491623       0
       11403.127       210.89468       14.857341       0
       11415.426       140.88145       12.422744       0
       11427.725       220.09934       16.508061       0
       11440.024       178.34762       14.124418       0
       11452.323       201.21333       18.427951       0
       11464.622       203.43689       16.046913       0
       11476.922       220.92852       20.797099       0
       11489.221       186.15021       17.839733       0
       11501.520       164.79767       22.882449       0
       11513.819       202.72129       19.728172       0
       11526.118       196.33084       25.486981       0
       11538.417       262.26371       22.214395       0
       11550.716       320.14244       29.272832       0
       11563.016       142.52155       25.708219       0
       11575.315       362.62412       34.993773       0
       11587.614       91.874959       31.300937       0
       11599.913       60.734833       42.562503       0
       11612.212       446.92834       39.247312       0
       11624.511       263.91723       53.007835       0
       11636.811       635.92732       47.821533       0
       11649.110       559.10770       64.318942       0
       11661.409       359.49803       57.874422       0
       11673.708       470.57853       79.398927       0
       11686.007       118.11911       73.798732       0
       11698.306       1187.3415       103.69818       0
       11710.606      -69.163284       95.929100       0
       11722.905       3661.1337       136.69281       0
       11735.204       1567.7312       125.28089       0
       11747.503       1647.0048       164.47420       0
       11759.802      -1795.0650       138.79772       0
       11772.101      -850.99328       167.21965       0
       11784.401      -165.25825       137.89244       0
       11796.700       1753.5431       162.45166       0
       11808.999      -3271.2533       132.63021       0
       11821.298      -836.21926       167.74206       0
       11833.597       2720.0547       143.98070       0
       11845.896       3799.5706       189.56066       0
       11858.196      -5348.6175       233.60143       0
       11870.495       8171.8913       227.52592       0
       11882.794       703.03459       199.24176       0
       11895.093       2482.1245       266.54435       0
       11907.392       8725.0387       229.62657       0
       11919.691       14038.608       300.16630       0
       11931.991      -3972.4683       265.48451       0
