#WAVELENGTH FLUX ERROR MASK
       10213.423       1357.9917       188.08480       0
       10236.393       83.965221       179.67842       0
       10259.363       1030.5773       162.25009       0
       10282.333       681.52986       146.25164       0
       10305.302       569.16141       139.98422       0
       10328.272      -318.95225       134.15859       0
       10351.242       414.28166       124.32890       0
       10374.212       466.81273       122.82229       0
       10397.181       685.61807       113.82416       0
       10420.151       360.80487       110.65418       0
       10443.121       192.96881       23029375.       0
       10466.091       44.134791       95.599600       0
       10489.060       932.89489       86.898598       0
       10512.030       174.01900       80.436251       0
       10535.000       269.73417       73.049153       0
       10557.970       251.84900       69.681337       0
       10580.939       331.33048       63.890371       0
       10603.909       471.44565       62.261101       0
       10626.879       301.24866       57.274761       0
       10649.849       173.67870       55.458932       0
       10672.818       218.68493       50.796602       0
       10695.788       200.46161       48.480363       0
       10718.758       240.33830       43.877522       0
       10741.728       138.51175       38.643834       0
       10764.697       189.48135       36.629908       0
       10787.667       90.684258       33.882579       0
       10810.637       150.56617       30.892501       0
       10833.607       124.94120       29.389522       0
       10856.576       139.60528       27.129533       0
       10879.546       80.490032       25.986304       0
       10902.516       98.592040       23.341475       0
       10925.486       103.57796       24.526119       0
       10948.455       99.937464       21.553503       0
       10971.425       88.896481       22.865758       0
       10994.395       89.370392       21.591674       0
       11017.365       51.378503       21.117710       1
       11040.334       75.279400       19.896059       1
       11063.304       72.245153       20.021676       1
       11086.274       75.184556       18.967811       1
       11109.243       76.752323       19.041526       1
       11132.213       71.632441       18.219061       1
       11155.183       67.324837       18.415339       1
       11178.153       77.836542       17.846355       1
       11201.122       80.147124       18.097192       1
       11224.092       87.784849       17.706965       1
       11247.062       72.174266       17.937966       1
       11270.032       74.363979       17.371377       1
       11293.001       76.687172       17.792815       1
       11315.971       82.051044       17.284994       1
       11338.941       72.524337       17.461904       1
       11361.911       77.931063       17.015426       1
       11384.880       70.524360       17.289896       1
       11407.850       80.614206       16.943845       1
       11430.820       65.937829       17.137669       1
       11453.790       71.238036       16.804460       1
       11476.759       66.952871       16.178430       1
       11499.729       89.563249       16.761298       1
       11522.699       56.101744       15.000308       1
       11545.669       90.184135       16.772273       1
       11568.638       48.579704       14.845476       1
       11591.608       90.413840       16.640417       1
       11614.578       61.289949       15.897379       1
       11637.548       71.632919       15.523802       1
       11660.517       59.868158       15.746637       1
       11683.487       77.312950       16.256585       1
       11706.457       72.139599       16.522551       1
       11729.427       88.661888       16.129382       1
       11752.396       67.832006       16.305546       1
       11775.366       79.053720       16.082913       1
       11798.336       70.520245       16.224141       1
       11821.306       83.110361       15.899932       1
       11844.275       68.185208       16.050821       1
       11867.245       74.734362       15.554551       1
       11890.215       81.268495       15.976900       1
       11913.185       74.795937       15.511517       1
       11936.154       74.593188       15.863321       1
       11959.124       67.559418       15.357686       1
       11982.094       69.775000       15.715863       1
       12005.064       69.141789       14.393720       1
       12028.033       69.237456       15.543488       1
       12051.003       82.884455       15.248159       1
       12073.973       62.699524       15.442809       1
       12096.943       84.630771       15.217755       1
       12119.912       59.572559       15.306954       1
       12142.882       67.040791       14.916284       1
       12165.852       66.469335       15.283217       1
       12188.822       77.926946       14.907986       1
       12211.791       55.593810       15.092113       1
       12234.761       68.139037       14.771314       1
       12257.731       64.137045       15.112348       1
       12280.700       71.368467       14.739745       1
       12303.670       63.283143       15.011808       1
       12326.640       62.035095       14.572960       1
       12349.610       68.508824       15.019165       1
       12372.579       69.576029       14.603989       1
       12395.549       58.329244       14.858781       1
       12418.519       63.819388       14.628259       1
       12441.489       63.944448       14.790277       1
       12464.458       72.824541       14.606187       1
       12487.428       68.360427       14.829516       1
       12510.398       72.608772       14.370066       1
       12533.368       60.918027       14.745863       1
       12556.337       66.762650       14.277820       1
       12579.307       59.191078       14.652599       1
       12602.277       67.924836       14.208218       1
       12625.247       59.964185       14.635867       1
       12648.216       61.401193       14.111338       1
       12671.186       58.453303       14.595701       1
       12694.156       56.968585       14.071203       1
       12717.126       45.476821       14.382631       1
       12740.095       64.346791       14.024916       1
       12763.065       48.157558       14.195464       1
       12786.035       57.718649       13.856871       1
       12809.005       49.220801       14.231041       1
       12831.974       63.500854       13.838397       1
       12854.944       53.536604       14.236019       1
       12877.914       56.117931       12.980316       1
       12900.884       56.903480       14.200681       1
       12923.853       67.378173       13.820894       1
       12946.823       64.336195       14.147161       1
       12969.793       62.684254       13.683536       1
       12992.763       53.698265       13.915829       1
       13015.732       59.779631       13.588414       1
       13038.702       57.086368       13.925680       1
       13061.672       62.931555       13.451877       1
       13084.642       54.276764       13.857925       1
       13107.611       45.607132       12.547497       1
       13130.581       53.044284       13.864759       1
       13153.551       62.121465       13.339077       1
       13176.521       48.647370       12.995809       1
       13199.490       52.348189       13.196610       1
       13222.460       56.346634       13.664763       1
       13245.430       57.149707       13.224306       1
       13268.400       56.274951       13.663891       1
       13291.369       50.554849       13.159773       1
       13314.339       55.738992       13.655489       1
       13337.309       62.037904       13.185170       1
       13360.278       57.077447       13.591182       1
       13383.248       55.431847       13.101687       1
       13406.218       58.497842       13.540052       1
       13429.188       44.516816       12.261751       1
       13452.157       40.581969       12.515468       1
       13475.127       58.228683       12.985199       1
       13498.097       52.360603       13.359789       1
       13521.067       44.053416       12.817805       1
       13544.036       55.510855       13.387453       1
       13567.006       47.150345       12.102090       1
       13589.976       45.809937       13.301858       1
       13612.946       45.282318       12.087787       1
       13635.915       55.777138       13.318444       1
       13658.885       61.390383       12.887535       1
       13681.855       58.145089       13.261132       1
       13704.825       52.006627       12.815532       1
       13727.794       55.797368       13.331537       1
       13750.764       65.976473       13.049101       1
       13773.734       59.745337       13.437961       1
       13796.704       60.997617       12.933757       1
       13819.673       43.479671       12.546798       1
       13842.643       61.580256       12.887499       1
       13865.613       57.250999       13.360868       1
       13888.583       58.271620       12.898004       1
       13911.552       48.011397       13.243490       1
       13934.522       58.457628       12.937530       1
       13957.492       40.832370       12.433143       1
       13980.462       55.591644       12.829227       1
       14003.431       56.832404       13.246659       1
       14026.401       58.415330       12.810849       1
       14049.371       55.274566       13.046243       1
       14072.341       57.958824       12.757179       1
       14095.310       50.162061       13.078654       1
       14118.280       50.574666       11.907734       1
       14141.250       55.644022       13.106130       1
       14164.220       49.337430       12.612036       1
       14187.189       52.683433       13.073538       1
       14210.159       58.844922       12.587330       1
       14233.129       54.434100       13.058982       1
       14256.099       53.484659       12.592252       1
       14279.068       42.763352       12.807082       1
       14302.038       54.768204       12.592961       1
       14325.008       41.173557       12.155827       1
       14347.978       55.565655       12.508914       1
       14370.947       46.550769       12.857814       1
       14393.917       55.886822       12.491833       1
       14416.887       53.766197       12.851556       1
       14439.856       58.387083       12.434653       1
       14462.826       52.037186       12.914967       1
       14485.796       38.500262       11.003739       1
       14508.766       45.124576       12.781064       1
       14531.735       49.996457       12.415112       1
       14554.705       50.190331       12.890485       1
       14577.675       61.489126       12.500641       1
       14600.645       55.364630       12.937518       1
       14623.614       51.374492       2809088.9       1
       14646.584       44.239197       12.186596       1
       14669.554       51.196807       12.409384       1
       14692.524       46.259722       12.862885       1
       14715.493       46.374897       12.451337       1
       14738.463       48.987111       12.828496       1
       14761.433       46.845919       12.442140       1
       14784.403       45.248423       12.206901       1
       14807.372       52.940620       12.513220       1
       14830.342       45.458865       12.997005       1
       14853.312       44.314262       12.403498       1
       14876.282       51.135957       12.874624       1
       14899.251       41.647723       12.288420       1
       14922.221       45.217667       12.790987       1
       14945.191       37.047121       11.656481       1
       14968.161       45.974084       12.781570       1
       14991.130       47.355575       12.302525       1
       15014.100       48.933554       12.714265       1
       15037.070       51.113039       12.369393       1
       15060.040       45.548147       12.714894       1
       15083.009       53.191122       12.363325       1
       15105.979       50.280547       12.721544       1
       15128.949       42.772167       12.319673       1
       15151.919       47.630645       12.620751       1
       15174.888       50.004878       12.346225       1
       15197.858       46.289843       12.664074       1
       15220.828       42.433180       12.281126       1
       15243.798       42.335984       12.551572       1
       15266.767       41.719622       12.233026       1
       15289.737       45.468454       12.647026       1
       15312.707       43.822309       12.228381       1
       15335.677       40.627719       2757513.0       1
       15358.646       46.957223       12.325077       1
       15381.616       40.808006       12.614966       1
       15404.586       41.138435       12.247580       1
       15427.556       43.506663       12.642482       1
       15450.525       46.402506       12.313388       1
       15473.495       35.825157       12.543111       1
       15496.465       48.667107       2765785.0       1
       15519.434       47.090085       12.687207       1
       15542.404       51.826144       12.407675       1
       15565.374       57.527728       12.800387       1
       15588.344       45.693109       12.343968       1
       15611.313       41.537589       13.158559       1
       15634.283       48.011031       12.332356       1
       15657.253       47.071668       12.575612       1
       15680.223       44.390437       12.270446       1
       15703.192       39.473439       11.879292       1
       15726.162       35.124690       12.186713       1
       15749.132       42.377139       12.539225       1
       15772.102       48.548045       12.283578       1
       15795.071       49.426690       12.590664       1
       15818.041       49.250706       12.224882       1
       15841.011       48.834687       12.614953       1
       15863.981       42.978551       12.200294       1
       15886.950       42.171795       12.568150       1
       15909.920       48.621941       12.287597       1
       15932.890       38.659459       12.483045       1
       15955.860       45.141712       12.253377       1
       15978.829       36.287452       11.838034       1
       16001.799       44.508683       12.269265       1
       16024.769       40.811503       12.590804       1
       16047.739       44.630225       12.273021       1
       16070.708       44.265198       12.591842       1
       16093.678       47.835451       12.225495       1
       16116.648       32.429609       11.804364       1
       16139.618       43.847809       12.461821       1
       16162.587       42.851932       12.600339       1
       16185.557       41.650815       12.503495       1
       16208.527       40.951679       12.632468       1
       16231.497       51.615958       12.438778       1
       16254.466       54.364294       12.846820       1
       16277.436       44.995967       12.338025       1
       16300.406       52.724721       12.810852       1
       16323.376       43.191154       12.426706       1
       16346.345       37.317660       12.680625       1
       16369.315       48.650330       12.471064       1
       16392.285       52.362756       12.837617       1
       16415.255       36.762718       12.383879       1
       16438.224       52.581769       12.867259       1
       16461.194       53.390634       12.573393       1
       16484.164       43.859117       12.911552       1
       16507.134       38.590318       12.550693       1
       16530.103       39.679462       13.048290       1
       16553.073       44.440764       12.921011       1
       16576.043       44.609230       13.577330       1
       16599.012       52.392577       13.709978       1
       16621.982       40.301680       14.309139       1
       16644.952       47.574538       14.444409       1
       16667.922       50.373731       15.461781       1
       16690.891       56.294369       15.808464       1
       16713.861       34.559759       16.939503       1
       16736.831       40.267002       17.505594       1
       16759.801       48.134282       19.101903       0
       16782.770       56.754529       19.912591       0
       16805.740       51.723411       21.799668       0
       16828.710       71.426809       22.706081       0
       16851.680       34.980288       23.105634       0
       16874.649       20.735340       25.237180       0
       16897.619       58.315926       27.587303       0
       16920.589       52.136964       28.254238       0
       16943.559       74.793861       30.681298       0
       16966.528       35.187458       31.406135       0
       16989.498       52.730674       34.181246       0
       17012.468       69.868782       33.174865       0
       17035.438       38.987933       37.974108       0
       17058.407       86.450613       38.993055       0
       17081.377       96.721515       42.207316       0
       17104.347       84.344627       43.364064       0
       17127.317       61.177451       47.990217       0
       17150.286       69.163936       49.454997       0
       17173.256       7.9414301       54.194121       0
       17196.226       69.978231       56.751428       0
       17219.196       95.819171       62.579897       0
       17242.165       51.621762       60.831163       0
       17265.135      -41.186368       69.902296       0
       17288.105      -218.33842       71.705812       0
       17311.075       193.32591       77.864772       0
       17334.044       199.01351       79.479946       0
       17357.014      -211.20189       80.683243       0
