#WAVELENGTH FLUX ERROR MASK
       7498.2436       3662.2018       367.36710       0
       7510.4843      -4533.1503       406.19079       0
       7522.7249       1196.2961       308.86784       0
       7534.9655       2405.4761       348.33488       0
       7547.2062       2103.3251       248.29947       0
       7559.4468       3502.5394       276.76670       0
       7571.6874      -1737.1928       195.71603       0
       7583.9281       132.77538       220.34506       0
       7596.1687       2465.2774       159.64105       0
       7608.4094      -107.59535       182.75560       0
       7620.6500      -410.84690       134.55206       0
       7632.8906      -103.95271       156.25175       0
       7645.1313       298.18639       118.95713       0
       7657.3719       539.58413       134.36652       0
       7669.6125       248.41571       97.963048       0
       7681.8532       801.04903       112.46887       0
       7694.0938       187.84777       81.814980       0
       7706.3344       154.53011       94.625737       0
       7718.5751       367.72196       69.758401       0
       7730.8157       338.47693       82.711052       0
       7743.0563       110.30030       62.513608       0
       7755.2970       206.47413       74.821931       0
       7767.5376      -283.72166       57.326728       0
       7779.7783      -304.79215       65.069462       0
       7792.0189       49.887116       52.962461       0
       7804.2595       139.19637       63.166377       0
       7816.5002       74.290095       47.852560       0
       7828.7408       296.22997       56.974251       0
       7840.9814      -5.2916346       42.507093       0
       7853.2221      -64.686100       50.484279       0
       7865.4627      -185.72973       38.475304       0
       7877.7033      -59.143517       46.283798       0
       7889.9440      -16.387133       35.415938       0
       7902.1846      -87.779613       42.784287       0
       7914.4253       3.5615346       34.121540       0
       7926.6659      -69.160962       40.331628       0
       7938.9065      -87.963269       31.241843       0
       7951.1472      -64.904380       38.357982       0
       7963.3878      -97.835637       30.362360       0
       7975.6284      -6.6866806       36.544930       0
       7987.8691      -71.494636       28.387871       0
       8000.1097       10.719488       34.956426       0
       8012.3503      -107.43425       27.202489       0
       8024.5910      -74.879677       33.756000       0
       8036.8316      -9.3070291       27.454742       0
       8049.0723      -103.48315       31.197880       0
       8061.3129      -44.953072       26.667285       0
       8073.5535       61.300605       32.473127       0
       8085.7942       70.239304       25.501733       0
       8098.0348       59.066685       31.713083       0
       8110.2754       40.170051       25.065301       0
       8122.5161       73.491055       31.154391       0
       8134.7567       21.245050       27.653805       0
       8146.9973      -24.659468       30.317791       0
       8159.2380       43.935892       25.556553       1
       8171.4786       29.022446       7565909.5       1
       8183.7192       34.010101       23.617660       1
       8195.9599       68.134611       29.383593       1
       8208.2005       20.779253       23.142974       1
       8220.4412       35.578984       32.851704       1
       8232.6818       64.113371       22.602771       1
       8244.9224       71.953503       28.000212       1
       8257.1631       26.978724       21.908170       1
       8269.4037       17.413290       26.802037       1
       8281.6443       62.064050       21.363737       1
       8293.8850       49.850815       26.222458       1
       8306.1256       44.118480       20.834891       1
       8318.3662       48.047860       25.669674       1
       8330.6069       76.319103       20.364363       1
       8342.8475       48.941259       25.219741       1
       8355.0882       62.284424       20.084003       1
       8367.3288       47.510870       24.869719       1
       8379.5694       41.903114       19.779288       1
       8391.8101       53.497711       24.283352       1
       8404.0507       80.623083       19.576298       1
       8416.2913       58.851760       24.236566       1
       8428.5320       55.530355       19.177589       1
       8440.7726       102.16300       23.985591       1
       8453.0132       76.848011       18.937604       1
       8465.2539       9.6660347       23.358020       1
       8477.4945       49.129702       18.586580       1
       8489.7352       60.051627       23.003293       1
       8501.9758       75.164891       18.392206       1
       8514.2164       56.181699       22.697048       1
       8526.4571       61.789447       18.162091       1
       8538.6977       87.733193       22.903087       1
       8550.9383       65.015198       17.991953       1
       8563.1790       74.773210       22.404616       1
       8575.4196       48.116604       17.811713       1
       8587.6602       49.749597       22.367466       1
       8599.9009       68.814493       17.795533       1
       8612.1415       79.030847       22.364376       1
       8624.3822       69.988742       17.751224       1
       8636.6228       70.203043       22.050520       1
       8648.8634       75.209949       19.496043       1
       8661.1041       71.203129       22.051323       1
       8673.3447       43.912793       17.420934       1
       8685.5853       83.695160       21.798141       1
       8697.8260       44.602412       17.189064       1
       8710.0666       79.846109       21.325522       1
       8722.3072       81.852987       18.520602       1
       8734.5479       73.808660       20.939673       1
       8746.7885       66.968752       18.293774       1
       8759.0291       97.828969       20.743207       1
       8771.2698       54.249580       16.400002       1
       8783.5104       78.955315       20.531171       1
       8795.7511       56.139334       16.206790       1
       8807.9917       57.304684       20.245381       1
       8820.2323       69.383634       16.986335       1
       8832.4730       37.316247       19.847102       1
       8844.7136       75.992622       16.914353       1
       8856.9542       62.528341       18.732999       1
       8869.1949       67.487818       15.727014       1
       8881.4355       74.745425       19.550294       1
       8893.6761       88.918130       15.680806       1
       8905.9168       81.127630       19.502894       1
       8918.1574       64.712411       15.509243       1
       8930.3981       80.307738       19.441265       1
       8942.6387       67.403344       17.650372       1
       8954.8793       61.163085       19.166624       1
       8967.1200       69.768135       15.223441       1
       8979.3606       67.409945       18.958332       1
       8991.6012       71.973791       15.152402       1
       9003.8419       42.695137       18.712807       1
       9016.0825       66.877931       15.034769       1
       9028.3231       45.459396       18.625612       1
       9040.5638       48.984502       14.899553       1
       9052.8044       38.397921       19.481617       1
       9065.0451       38.710849       14.871263       1
       9077.2857       24.601998       15.911022       1
       9089.5263       59.363340       14.811609       1
       9101.7670       69.614184       18.483313       1
       9114.0076       59.339887       14.627596       1
       9126.2482       67.971667       18.234125       1
       9138.4889       64.377415       14.968872       1
       9150.7295       48.974156       18.051686       1
       9162.9701       63.679607       15.790595       1
       9175.2108       45.454103       17.841803       1
       9187.4514       60.170068       14.261978       1
       9199.6920       61.455117       17.641871       1
       9211.9327       63.907381       14.468353       1
       9224.1733       67.107408       16.955354       1
       9236.4140       67.401365       14.162865       1
       9248.6546       57.238157       17.673135       1
       9260.8952       69.159484       14.023435       1
       9273.1359       52.939493       17.524209       1
       9285.3765       50.488297       15.632028       1
       9297.6171       23.204131       18.675761       1
       9309.8578       63.769537       15.623181       1
       9322.0984       50.715244       18.669603       1
       9334.3390       47.940748       13.764275       1
       9346.5797       49.162816       17.317161       1
       9358.8203       43.267965       14.400621       1
       9371.0610       47.230551       17.230799       1
       9383.3016       45.522310       15.376659       1
       9395.5422       41.102294       16.272787       1
       9407.7829       56.987402       13.501497       1
       9420.0235       90.538718       18.478926       1
       9432.2641       58.680224       13.565720       1
       9444.5048       62.494435       16.848131       1
       9456.7454       79.602187       13.516759       1
       9468.9860       66.347118       16.015957       1
       9481.2267       60.747422       13.377908       1
       9493.4673       78.044548       16.802483       1
       9505.7080       68.642603       13.317710       1
       9517.9486       70.967969       16.637548       1
       9530.1892       72.821374       13.227388       1
       9542.4299       63.363378       16.559155       1
       9554.6705       34.352821       14.674583       1
       9566.9111       59.666523       16.530056       1
       9579.1518       57.763407       13.120670       1
       9591.3924       62.026783       16.308720       1
       9603.6330       44.287998       12.983792       1
       9615.8737       69.359769       16.573609       1
       9628.1143       54.299577       12.936686       1
       9640.3550       72.947726       16.462928       1
       9652.5956       61.954135       12.942885       1
       9664.8362       64.150509       16.091322       1
       9677.0769       59.963323       12.869179       1
       9689.3175       66.656862       16.094929       1
       9701.5581       65.118409       12.806882       1
       9713.7988       59.058328       15.947274       1
       9726.0394       65.231014       12.766377       1
       9738.2800       59.325193       15.982759       1
       9750.5207       64.268976       12.693485       1
       9762.7613       65.226221       5691123.0       1
       9775.0019       67.627547       12.648162       1
       9787.2426       66.628922       17.126721       1
       9799.4832       58.873988       12.554888       1
       9811.7239       79.091639       18.336401       1
       9823.9645       61.914963       12.559506       1
       9836.2051       71.349883       18.172217       1
       9848.4458       63.356428       12.527655       1
       9860.6864       69.281297       15.728741       1
       9872.9270       64.492542       12.531099       1
       9885.1677       40.069267       15.565272       1
       9897.4083       64.957577       12.512177       1
       9909.6489       65.901774       15.700231       1
       9921.8896       55.527295       12.430994       1
       9934.1302       36.839911       14.689172       1
       9946.3709       67.617473       12.730918       1
       9958.6115       53.767517       15.476013       1
       9970.8521       64.485931       12.372150       1
       9983.0928       55.429596       15.392922       1
       9995.3334       71.912610       12.290094       1
       10007.574       60.643313       15.262066       1
       10019.815       59.926743       13.613258       1
       10032.055       58.035613       15.212530       1
       10044.296       61.047606       12.121988       1
       10056.537       64.154941       15.223045       1
       10068.777       67.687984       12.166027       1
       10081.018       47.459011       16.275380       1
       10093.258       62.338892       12.076538       1
       10105.499       86.925394       15.239858       1
       10117.740       43.013067       12.022387       1
       10129.980       72.314352       15.212531       1
       10142.221       74.774153       12.124809       1
       10154.462       58.356922       15.090572       1
       10166.702       52.185262       11.978662       1
       10178.943       36.761538       13.218873       1
       10191.184       50.888078       11.837907       1
       10203.424       55.647080       14.737639       1
       10215.665       54.356468       12.143150       1
       10227.905       58.304711       14.758117       1
       10240.146       55.126628       11.818190       1
       10252.387       59.065923       14.739567       1
       10264.627       57.986211       13.128646       1
       10276.868       68.758617       14.657021       1
       10289.109       47.569742       11.606526       1
       10301.349       51.512990       14.463945       1
       10313.590       56.243583       11.583507       1
       10325.831       47.749540       14.424667       1
       10338.071       62.840183       11.581690       1
       10350.312       64.521884       14.372415       1
       10362.552       65.399972       11.558119       1
       10374.793       58.728305       14.386951       1
       10387.034       56.961514       11.500159       1
       10399.274       46.047039       14.340749       1
       10411.515       54.427856       11.558300       1
       10423.756       60.014950       14.396793       1
       10435.996       56.861820       11.540651       1
       10448.237       56.118549       14.316334       1
       10460.478       46.952140       11.463697       1
       10472.718       69.801263       14.366391       1
       10484.959       55.493388       11.449610       1
       10497.199       60.321925       14.409685       1
       10509.440       65.788892       11.476684       1
       10521.681       53.809002       14.296957       1
       10533.921       54.289851       11.443336       1
       10546.162       57.754606       3665099.2       1
       10558.403       55.168656       11.446617       1
       10570.643       54.886286       13.385506       1
       10582.884       55.795234       11.443079       1
       10595.125       64.245685       14.929502       1
       10607.365       54.198255       11.500546       1
       10619.606       65.862509       14.253670       1
       10631.846       47.302837       11.315986       1
       10644.087       64.083569       14.205846       1
       10656.328       60.830134       12.443049       1
       10668.568       62.680401       14.098724       1
       10680.809       54.890952       11.249901       1
       10693.050       62.857920       15.218250       1
       10705.290       78.610266       11.298167       1
       10717.531       67.781767       16.262434       1
       10729.772       63.746916       11.225973       1
       10742.012       71.382492       15.175969       1
       10754.253       67.387535       11.527056       1
       10766.493       58.413866       13.969526       1
       10778.734       64.277409       10.545001       1
       10790.975       53.997899       13.841520       1
       10803.215       53.680132       11.178933       1
       10815.456       59.434767       13.859069       1
       10827.697       50.580524       11.114872       1
       10839.937       63.497465       13.971591       1
       10852.178       51.821664       11.100039       1
       10864.419       48.358733       13.856582       1
       10876.659       59.271728       11.361014       1
       10888.900       54.972327       13.802565       1
       10901.140       57.476842       11.055257       1
       10913.381       52.646970       13.753976       1
       10925.622       56.249395       11.060878       1
       10937.862       68.719919       16.102101       1
       10950.103       59.374987       11.610123       1
       10962.344       48.897043       15.982102       1
       10974.584       68.901556       11.417540       1
       10986.825       68.221443       13.868735       1
       10999.066       62.723129       11.382706       1
       11011.306       71.790792       13.880898       1
       11023.547       57.372348       11.394670       1
       11035.787       59.060362       13.799492       1
       11048.028       55.971433       11.371439       1
       11060.269       62.630296       13.792954       1
       11072.509       52.270814       11.338090       1
       11084.750       59.337650       13.731328       1
       11096.991       57.202732       10.994718       1
       11109.231       58.733804       13.745482       1
       11121.472       62.593652       11.013372       1
       11133.713       71.403728       13.977327       1
       11145.953       50.894796       11.082148       1
       11158.194       57.240734       13.931152       1
       11170.434       58.414542       11.119551       1
       11182.675       58.793008       13.891299       1
       11194.916       48.066453       11.077844       1
       11207.156       54.759872       13.944537       0
       11219.397       51.470538       11.066070       0
       11231.638       68.191642       13.988699       0
       11243.878       57.672384       11.099897       0
       11256.119       46.950168       13.869698       0
       11268.360       49.068765       11.033997       0
       11280.600       59.682390       13.918130       0
       11292.841       57.276274       11.075669       0
       11305.081       64.460413       13.908148       0
       11317.322       59.646971       11.093486       0
       11329.563       58.060060       13.850538       0
       11341.803       56.540342       11.390125       0
       11354.044       62.849373       13.896465       0
       11366.285       61.629945       11.140437       0
       11378.525       61.608406       14.090999       0
       11390.766       48.413777       11.389728       0
       11403.007       58.481633       14.671343       0
       11415.247       60.513616       12.020859       0
       11427.488       47.548603       15.560444       0
       11439.728       63.486078       13.048938       0
       11451.969       54.139822       17.189962       0
       11464.210       35.849456       14.394022       0
       11476.450       78.116465       19.265380       0
       11488.691       24.692689       16.291800       0
       11500.932       93.624695       21.955837       0
       11513.172       72.991839       18.466872       0
       11525.413       103.60559       24.635880       0
       11537.654       95.054508       20.547183       0
       11549.894       90.341452       27.038399       0
       11562.135       56.349004       22.671481       0
       11574.375       72.204205       30.209429       0
       11586.616       23.977736       26.419072       0
       11598.857       53.263889       34.922100       0
       11611.097      -12.745891       30.424799       0
       11623.338       124.38832       41.815975       0
       11635.579       83.593888       37.383415       0
       11647.819       126.64949       51.957333       0
       11660.060       209.31236       47.585630       0
       11672.301      -23.048475       63.397099       0
       11684.541       117.63242       56.055015       0
       11696.782       94.166975       71.940460       0
       11709.022       409.14770       67.684653       0
       11721.263      -269.11472       95.649860       0
       11733.504       351.78921       86.782237       0
       11745.744       605.42418       124.56136       0
       11757.985       902.68397       113.25348       0
       11770.226       2674.6698       162.87110       0
       11782.466       1488.2552       144.17861       0
       11794.707       133.80601       190.24238       0
       11806.948      -1896.4072       153.52221       0
       11819.188      -737.89155       191.39140       0
       11831.429       300.86710       169.83239       0
       11843.669      -528.69584       186.84201       0
       11855.910       1760.1697       150.78569       0
       11868.151      -888.79345       193.36947       0
       11880.391       1393.1018       166.53957       0
       11892.632       4233.8639       219.69427       0
