#WAVELENGTH FLUX ERROR MASK
       10221.866       2594.0770       159.72521       0
       10245.110       1290.7736       138.50226       0
       10268.354       829.26598       135.16392       0
       10291.598       3870.7154       138.43306       0
       10314.842      -1177.9233       124.68446       0
       10338.086       1899.0041       121.37539       0
       10361.330       976.69695       114.91572       0
       10384.574      -414.82788       107.98166       0
       10407.818      -328.20800       103.19594       0
       10431.062       1926.0530       100.42999       0
       10454.306       393.23915       91.384354       0
       10477.550       464.88205       84.419263       0
       10500.793       400.16979       76.971956       0
       10524.037       637.89842       71.845188       0
       10547.281       149.36729       65.900772       0
       10570.525       689.69148       62.697947       0
       10593.769       616.94864       58.896453       0
       10617.013       153.62932       54.403788       0
       10640.257       24.547123       53.614424       0
       10663.501       72.061936       48.850440       0
       10686.745       579.11148       47.047110       0
       10709.989       207.82341       42.967234       0
       10733.233       148.39199       39.049905       0
       10756.477       255.62347       36.179013       0
       10779.721       260.91634       32.585847       0
       10802.964       226.75526       30.262480       0
       10826.208       239.96690       28.393770       0
       10849.452       237.25349       26.829692       0
       10872.696       185.08065       25.153104       0
       10895.940       194.42643       24.115683       0
       10919.184       210.67644       23.312373       0
       10942.428       187.37169       22.236719       0
       10965.672       232.65636       21.937997       0
       10988.916       175.97549       21.221202       0
       11012.160       244.35294       20.821610       1
       11035.404       233.25460       20.253842       1
       11058.648       266.28639       19.648859       1
       11081.892       185.21672       18.932269       1
       11105.135       194.25432       18.496138       1
       11128.379       176.28227       18.125415       1
       11151.623       213.59763       18.139883       1
       11174.867       182.32071       17.915180       1
       11198.111       187.87602       17.647101       1
       11221.355       184.22862       17.592792       1
       11244.599       210.05227       17.717040       1
       11267.843       201.69091       17.552830       1
       11291.087       218.36059       17.643895       1
       11314.331       171.57872       17.239956       1
       11337.575       238.94846       17.649208       1
       11360.819       186.25983       17.107345       1
       11384.063       195.27202       17.144022       1
       11407.306       179.98570       16.998105       1
       11430.550       221.66775       17.255939       1
       11453.794       209.45881       17.121445       1
       11477.038       189.63260       16.871963       1
       11500.282       198.05463       16.971847       1
       11523.526       193.38477       16.907269       1
       11546.770       207.77694       17.594114       1
       11570.014       73.755274       11.689710       1
       11593.258       224.12577       17.055020       1
       11616.502       238.61872       17.097051       1
       11639.746       226.86953       16.763505       1
       11662.990       206.62424       16.514296       1
       11686.234       204.79421       16.680445       1
       11709.477       214.25154       16.289113       1
       11732.721       188.92972       16.344000       1
       11755.965       237.42215       16.561015       1
       11779.209       221.27500       16.279739       1
       11802.453       247.53876       16.494254       1
       11825.697       233.19024       16.312742       1
       11848.941       214.45154       16.118263       1
       11872.185       224.87196       16.131100       1
       11895.429       219.27578       15.987724       1
       11918.673       226.95137       15.987851       1
       11941.917       228.52876       16.000330       1
       11965.161       200.86648       15.692930       1
       11988.405       234.65624       16.014690       1
       12011.648       125.88009       11.355518       1
       12034.892       210.63363       15.800530       1
       12058.136       207.95388       15.469690       1
       12081.380       214.68958       15.559813       1
       12104.624       187.78630       15.334063       1
       12127.868       213.21284       15.629895       1
       12151.112       193.38024       15.309874       1
       12174.356       249.15005       15.818353       1
       12197.600       167.47028       15.084368       1
       12220.844       212.84127       15.418795       1
       12244.088       202.58054       15.233845       1
       12267.332       211.43451       15.302304       1
       12290.576       184.64351       15.128377       1
       12313.819       216.03332       15.369767       1
       12337.063       219.34420       15.174158       1
       12360.307       219.31351       15.335318       1
       12383.551       221.70847       15.203544       1
       12406.795       189.27464       14.978969       1
       12430.039       217.55745       15.158299       1
       12453.283       201.71796       15.086003       1
       12476.527       216.66871       15.062367       1
       12499.771       234.72224       15.314455       1
       12523.015       236.39123       15.194359       1
       12546.259       238.31448       15.269918       1
       12569.503       214.91382       14.914935       1
       12592.747       212.65194       15.061697       1
       12615.990       209.12058       14.927973       1
       12639.234       205.02673       14.971240       1
       12662.478       178.89128       13.027786       1
       12685.722       178.76925       13.824888       1
       12708.966       163.66323       12.740028       1
       12732.210       150.41884       13.473027       1
       12755.454       167.27149       12.707588       1
       12778.698       177.58489       13.563222       1
       12801.942       156.58251       12.443333       1
       12825.186       158.50077       13.326564       1
       12848.430       182.49333       12.618082       1
       12871.674       177.61703       13.545756       1
       12894.918       172.90133       12.630913       1
       12918.161       178.82744       13.579040       1
       12941.405       166.10635       12.502999       1
       12964.649       164.59600       13.297769       1
       12987.893       182.60799       12.567944       1
       13011.137       166.36782       13.219180       1
       13034.381       179.67983       12.354949       1
       13057.625       163.61610       13.146296       1
       13080.869       191.80439       12.427398       1
       13104.113       180.56982       13.250097       1
       13127.357       171.90389       12.411756       1
       13150.601       154.76643       12.999602       1
       13173.845       183.41009       12.455185       1
       13197.089       56.501063       8.9658630       1
       13220.332       175.32927       12.268632       1
       13243.576       179.83585       13.052612       1
       13266.820       184.19845       12.362377       1
       13290.064       193.21508       13.178535       1
       13313.308       187.79476       12.380718       1
       13336.552       189.94595       13.134833       1
       13359.796       186.22753       12.275371       1
       13383.040       213.13107       13.148442       1
       13406.284       188.64155       12.271812       1
       13429.528       193.79722       13.086565       1
       13452.772       176.98834       12.103950       1
       13476.016       173.33101       12.914989       1
       13499.260       194.33278       12.320068       1
       13522.503       164.85311       12.749684       1
       13545.747       186.92019       12.205795       1
       13568.991       195.02116       13.044654       1
       13592.235       177.18836       12.097121       1
       13615.479       187.25348       12.975509       1
       13638.723       170.42366       12.011891       1
       13661.967       185.45172       12.912165       1
       13685.211       186.50915       12.112059       1
       13708.455       196.37849       12.953103       1
       13731.699       196.45156       12.282288       1
       13754.943       182.33810       12.833967       1
       13778.187       189.91247       12.192798       1
       13801.430       177.20178       12.713481       1
       13824.674       201.67954       12.295391       1
       13847.918       187.50525       12.921593       1
       13871.162       182.87698       12.146596       1
       13894.406       194.10670       12.934110       1
       13917.650       177.28967       12.060613       1
       13940.894       182.41120       12.844438       1
       13964.138       189.19177       12.010802       1
       13987.382       209.56471       13.019414       1
       14010.626       203.90492       12.324675       1
       14033.870       184.78659       12.720800       1
       14057.114       176.29458       11.902266       1
       14080.358       204.26448       12.752632       1
       14103.601       188.13325       11.982741       1
       14126.845       176.12360       12.597430       1
       14150.089       205.46574       12.288953       1
       14173.333       201.28291       12.845979       1
       14196.577       198.38724       12.047592       1
       14219.821       194.55798       12.755184       1
       14243.065       191.23414       11.915832       1
       14266.309       205.55688       12.826086       1
       14289.553       196.98780       11.920733       1
       14312.797       213.62822       12.842817       1
       14336.041       194.83390       12.075243       1
       14359.285       207.31351       12.698483       1
       14382.529       187.25106       11.852555       1
       14405.772       191.39569       12.588172       1
       14429.016       183.01295       11.879834       1
       14452.260       186.16968       12.486154       1
       14475.504       182.98607       11.948651       1
       14498.748       181.76316       12.531526       1
       14521.992       197.33393       11.874919       1
       14545.236       188.28328       12.570472       1
       14568.480       194.65778       11.848749       1
       14591.724       180.40176       12.400853       1
       14614.968       193.38001       11.910303       1
       14638.212       201.42291       12.614074       1
       14661.456       204.33871       11.964870       1
       14684.700       184.39199       12.509197       1
       14707.943       175.46811       11.731795       1
       14731.187       197.40092       12.603849       1
       14754.431       183.51906       11.768023       1
       14777.675       187.79804       12.589401       1
       14800.919       204.22179       11.945564       1
       14824.163       184.72153       12.481894       1
       14847.407       203.10548       11.874309       1
       14870.651       193.33001       12.500799       1
       14893.895       172.54759       11.550151       1
       14917.139       195.56313       12.542092       1
       14940.383       187.51410       11.794356       1
       14963.627       213.92220       12.458449       1
       14986.871       182.13355       11.648906       1
       15010.114       62.718557       8.2904178       1
       15033.358       142.32710       12.813770       1
       15056.602       173.50736       12.942838       1
       15079.846       136.75168       12.693998       1
       15103.090       158.49582       12.898395       1
       15126.334       136.27939       12.723543       1
       15149.578       167.04273       13.041866       1
       15172.822       137.06469       12.544727       1
       15196.066       144.41284       12.795372       1
       15219.310       141.81799       12.530785       1
       15242.554       149.93245       12.853558       1
       15265.798       154.95406       12.865826       1
       15289.042       152.37658       12.624699       1
       15312.285       125.04132       12.640569       1
       15335.529       170.39370       13.021863       1
       15358.773       161.97530       12.968453       1
       15382.017       150.30695       12.774121       1
       15405.261       170.00791       13.066611       1
       15428.505       173.99836       13.139312       1
       15451.749       168.07255       13.046491       1
       15474.993       178.92623       13.111829       1
       15498.237       178.89993       13.136849       1
       15521.481       194.93820       13.303399       1
       15544.725       163.21911       12.995224       1
       15567.969       170.83319       13.036548       1
       15591.213       174.47197       13.068568       1
       15614.456       171.92068       13.102893       1
       15637.700       169.14224       12.937403       1
       15660.944       159.36342       12.905539       1
       15684.188       157.69812       12.894826       1
       15707.432       170.52237       12.944769       1
       15730.676       152.59962       12.770143       1
       15753.920       174.53242       13.003915       1
       15777.164       157.99146       12.897972       1
       15800.408       168.46967       12.954970       1
       15823.652       150.12446       12.837438       1
       15846.896       167.68971       12.905645       1
       15870.140       149.58605       12.733766       1
       15893.384       162.47861       12.850098       1
       15916.627       178.92500       13.056185       1
       15939.871       160.66776       12.850381       1
       15963.115       162.94558       12.938694       1
       15986.359       155.75271       12.840183       1
       16009.603       174.11333       12.993783       1
       16032.847       178.97890       12.890651       1
       16056.091       156.08101       12.732129       1
       16079.335       166.33959       12.642103       1
       16102.579       154.22038       12.818190       1
       16125.823       167.01204       12.807660       1
       16149.067       176.95435       13.092961       1
       16172.311       176.76907       13.065669       1
       16195.555       175.51700       13.185604       1
       16218.798       158.72145       13.016947       1
       16242.042       161.39983       13.041115       1
       16265.286       175.82970       13.180054       1
       16288.530       161.28126       13.095504       1
       16311.774       169.94051       13.217347       1
       16335.018       181.79348       13.294853       1
       16358.262       157.47932       13.037902       1
       16381.506       154.19885       12.958855       1
       16404.750       166.22969       13.184192       1
       16427.994       146.94571       12.754536       1
       16451.238       160.07993       13.146466       1
       16474.482       152.45163       12.825917       1
       16497.726       181.38275       13.446052       1
       16520.969       148.84021       13.183345       1
       16544.213       169.56364       15.055813       1
       16567.457       146.85227       13.580425       1
       16590.701       182.11917       14.200104       1
       16613.945       162.22080       14.437513       1
       16637.189       170.70943       14.911352       1
       16660.433       148.54273       15.313459       1
       16683.677       188.61429       16.248846       1
       16706.921       189.57890       16.953546       1
       16730.165       184.54260       17.880699       1
       16753.409       161.01309       18.756879       0
       16776.653       48.116422       13.864337       0
       16799.897       190.93228       21.318959       0
       16823.140       193.94757       22.635676       0
       16846.384       136.76031       23.655088       0
       16869.628       298.97908       25.767710       0
       16892.872       220.07013       26.788222       0
       16916.116       158.45850       27.880559       0
       16939.360       181.83278       29.407428       0
       16962.604       250.60305       31.453807       0
       16985.848       240.69682       33.135841       0
       17009.092       248.51038       34.679433       0
       17032.336       305.45998       37.028011       0
       17055.580       211.32635       38.433202       0
       17078.824       388.70305       41.092257       0
       17102.067       210.30941       43.027476       0
       17125.311       118.21953       45.368030       0
       17148.555       120.77187       48.525086       0
       17171.799       350.94620       52.693204       0
       17195.043       226.08969       56.160367       0
       17218.287       234.63429       59.761471       0
       17241.531       577.07588       64.008503       0
       17264.775       531.67439       68.249225       0
       17288.019       81.574546       70.787189       0
       17311.263       371.29314       74.682077       0
       17334.507       842.66710       79.238468       0
       17357.751       54.735455       82.056529       0
       17380.995       295.73737       87.186007       0
       17404.238      -520.07195       79.235716       0
       17427.482       483.62227       88.990718       0
       17450.726      -54.095014       87.774405       0
