#WAVELENGTH FLUX ERROR MASK
       7516.5909      -2253.6857       296.37333       0
       7528.8901       2033.2130       219.93858       0
       7541.1892       5899.3395       250.65677       0
       7553.4884      -4262.4840       176.48592       0
       7565.7876       3966.3447       197.53965       0
       7578.0867       2930.2496       144.70625       0
       7590.3859       2472.3001       158.72593       0
       7602.6851       1803.4747       116.06667       0
       7614.9842       162.18744       132.02190       0
       7627.2834       1944.1356       98.815668       0
       7639.5825       648.05410       114.07583       0
       7651.8817      -615.42202       84.182469       0
       7664.1809       830.11790       97.376449       0
       7676.4800       1553.1362       71.461739       0
       7688.7792       1846.5259       82.180978       0
       7701.0784       865.41010       59.607781       0
       7713.3775       708.80254       70.394060       0
       7725.6767       660.57286       65.485689       0
       7737.9759       683.55718       63.118862       0
       7750.2750       248.68004       46.390984       0
       7762.5742       1019.4234       56.346165       0
       7774.8733       327.34815       42.739192       0
       7787.1725       251.85895       50.792239       0
       7799.4717       215.00217       42.059239       0
       7811.7708       326.34543       46.216886       0
       7824.0700       134.75891       35.081905       0
       7836.3692       5.2100491       41.327075       0
       7848.6683       163.57849       31.443918       0
       7860.9675       172.64376       37.549219       0
       7873.2666       106.35092       37.988596       0
       7885.5658       183.05545       35.377557       0
       7897.8650       109.48797       26.598708       0
       7910.1641       299.54983       32.611454       0
       7922.4633       200.47240       25.128841       0
       7934.7625       102.37990       30.574416       0
       7947.0616       240.91231       24.120290       0
       7959.3608       79.973911       29.177767       0
       7971.6600       49.631638       22.674142       0
       7983.9591       16.672165       27.913418       0
       7996.2583       49.616949       21.885850       0
       8008.5574       63.490251       27.067571       0
       8020.8566       118.53545       21.368259       0
       8033.1558       100.96158       26.248269       0
       8045.4549       122.97579       20.744955       0
       8057.7541       136.87620       26.003073       0
       8070.0533       73.971089       20.416785       0
       8082.3524       260.66420       25.745342       0
       8094.6516       101.69420       20.132931       0
       8106.9508       141.86021       25.063152       0
       8119.2499       116.01111       19.637395       0
       8131.5491       158.12906       24.554254       0
       8143.8482       146.32599       19.506768       0
       8156.1474       110.22133       24.120880       1
       8168.4466       88.281034       18.988874       1
       8180.7457       83.296272       23.489507       1
       8193.0449       113.62461       18.699168       1
       8205.3441       83.245289       22.954221       1
       8217.6432       48.047290       18.223517       1
       8229.9424       60.732007       22.538428       1
       8242.2415       32.560479       17.737920       1
       8254.5407       113.24052       22.134819       1
       8266.8399       54.771480       18.241954       1
       8279.1390       121.68450       21.580613       1
       8291.4382       77.974367       17.575972       1
       8303.7374       81.061594       20.984765       1
       8316.0365       102.34314       16.641018       1
       8328.3357       66.030851       20.540633       1
       8340.6349       106.43849       16.399992       1
       8352.9340       86.001030       20.375727       1
       8365.2332       75.387695       16.122502       1
       8377.5323       127.83951       20.146057       1
       8389.8315       82.062369       16.703307       1
       8402.1307       100.29802       20.603178       1
       8414.4298       110.84789       16.538606       1
       8426.7290       122.16159       20.308626       1
       8439.0282       77.349578       16.245681       1
       8451.3273       75.134031       19.796609       1
       8463.6265       84.561427       15.947763       1
       8475.9257       61.862600       19.615488       1
       8488.2248       60.872367       15.698705       1
       8500.5240       79.220371       19.404651       1
       8512.8231       127.67290       15.710888       1
       8525.1223       78.478464       19.051476       1
       8537.4215       119.30479       15.530218       1
       8549.7206       98.486845       19.110367       1
       8562.0198       125.84498       15.420726       1
       8574.3190       146.71214       19.108170       1
       8586.6181       89.580818       15.317643       1
       8598.9173       116.61474       19.004308       1
       8611.2164       94.465164       15.232870       1
       8623.5156       119.40062       19.614206       1
       8635.8148       78.617279       15.134652       1
       8648.1139       157.70755       18.960748       1
       8660.4131       89.305225       15.087518       1
       8672.7123       123.09239       18.614220       1
       8685.0114       131.35112       14.967211       1
       8697.3106       61.461445       18.151799       1
       8709.6098       116.45675       14.673653       1
       8721.9089       96.437451       17.917638       1
       8734.2081       108.26507       14.384212       1
       8746.5072       103.11455       17.635152       1
       8758.8064       94.154530       14.362312       1
       8771.1056       99.158994       17.476209       1
       8783.4047       97.668404       14.014605       1
       8795.7039       147.64205       17.478949       1
       8808.0031       103.70671       15.161152       1
       8820.3022       157.12849       17.357408       1
       8832.6014       77.345106       13.750476       1
       8844.9006       26.936924       13.460214       1
       8857.1997       95.520283       13.641630       1
       8869.4989       65.114483       16.716043       1
       8881.7980       58.861238       13.370011       1
       8894.0972       57.081016       16.486746       1
       8906.3964       89.816160       13.382675       1
       8918.6955       81.872482       16.471033       1
       8930.9947       82.690499       13.293512       1
       8943.2939       51.499953       16.088838       1
       8955.5930       92.866174       13.491749       1
       8967.8922       88.391518       16.154283       1
       8980.1913       106.47276       13.080977       1
       8992.4905       91.788025       16.061054       1
       9004.7897       67.886968       12.840403       1
       9017.0888       79.225062       15.905945       1
       9029.3880       92.862382       12.869507       1
       9041.6872       87.899936       15.903555       1
       9053.9863       73.100087       12.819246       1
       9066.2855       104.84775       15.916195       1
       9078.5847       76.949420       12.694133       1
       9090.8838       51.431425       15.470489       1
       9103.1830       57.617734       12.567451       1
       9115.4821       77.891203       15.476032       1
       9127.7813       97.727602       12.592248       1
       9140.0805       116.91186       15.479703       1
       9152.3796       108.64603       12.473050       1
       9164.6788       128.22540       15.350687       1
       9176.9780       74.158778       12.327491       1
       9189.2771       63.335866       15.037737       1
       9201.5763       81.311227       12.618631       1
       9213.8755       123.16084       15.166361       1
       9226.1746       102.83129       12.540984       1
       9238.4738       108.52242       14.999512       1
       9250.7729       76.027032       12.011420       1
       9263.0721       105.92901       14.834198       1
       9275.3713       98.804455       12.042668       1
       9287.6704       119.44686       14.253224       1
       9299.9696       134.28614       11.509781       1
       9312.2688       132.03130       14.277193       1
       9324.5679       130.17125       11.387545       1
       9336.8671       156.17922       14.310931       1
       9349.1662       136.67528       11.387266       1
       9361.4654       134.03615       14.089677       1
       9373.7646       140.72650       11.333323       1
       9386.0637       129.71030       14.083122       1
       9398.3629       154.23404       11.335473       1
       9410.6621       153.16813       14.058446       1
       9422.9612       145.39910       11.196158       1
       9435.2604       155.95732       14.012812       1
       9447.5596       181.33973       11.401073       1
       9459.8587       143.84364       13.881372       1
       9472.1579       185.04386       11.200429       1
       9484.4570       176.13186       13.921222       1
       9496.7562       164.69366       11.085596       1
       9509.0554       181.73352       13.921469       1
       9521.3545       177.47885       11.058894       1
       9533.6537       190.67475       13.815992       1
       9545.9529       176.82804       11.040516       1
       9558.2520       170.43768       13.569442       1
       9570.5512       201.82212       11.062270       1
       9582.8504       136.05756       11.429555       1
       9595.1495       176.75832       10.948887       1
       9607.4487       111.99565       10.555449       1
       9619.7478       161.06035       10.798900       1
       9632.0470       147.70817       13.421883       1
       9644.3462       158.70106       10.794724       1
       9656.6453       133.44194       11.310881       1
       9668.9445       147.05909       10.698266       1
       9681.2437       145.00743       13.321423       1
       9693.5428       167.12036       10.747892       1
       9705.8420       167.43793       13.377443       1
       9718.1411       143.56636       10.584796       1
       9730.4403       124.43161       13.069377       1
       9742.7395       131.36904       10.553623       1
       9755.0386       137.60321       13.131751       1
       9767.3378       120.87483       12.981662       1
       9779.6370       140.04599       13.090294       1
       9791.9361       120.63676       10.437643       1
       9804.2353       120.85582       13.013537       1
       9816.5345       125.45823       10.335648       1
       9828.8336       129.27971       6387582.9       1
       9841.1328       125.92634       10.344683       1
       9853.4319       145.11390       13.027209       1
       9865.7311       146.82132       10.401621       1
       9878.0303       145.99766       12.938901       1
       9890.3294       128.42255       10.321900       1
       9902.6286       131.70400       12.848613       1
       9914.9278       138.89250       10.262067       1
       9927.2269       132.51292       12.914897       1
       9939.5261       138.82627       10.361762       1
       9951.8253       118.79527       12.923402       1
       9964.1244       137.69470       10.589588       1
       9976.4236       111.74532       12.718526       1
       9988.7227       129.95488       10.193290       1
       10001.022       140.47166       12.853855       1
       10013.321       126.13727       10.205033       1
       10025.620       173.82397       12.989803       1
       10037.919       203.65370       10.501293       1
       10050.219       271.95367       13.446524       1
       10062.518       329.43497       11.058937       1
       10074.817       405.04676       14.212991       1
       10087.116       671.10044       12.665686       1
       10099.415       459.33281       15.387822       1
       10111.714       918.80056       14.213673       1
       10124.014       347.84296       15.885971       1
       10136.313       610.77823       13.821333       1
       10148.612       68.717876       14.762861       1
       10160.911       138.48824       11.946147       1
       10173.210       70.214988       14.023314       1
       10185.509       125.32124       11.282121       1
       10197.809       110.84154       13.458387       1
       10210.108       154.09165       10.860929       1
       10222.407       165.64743       13.271535       1
       10234.706       163.40239       10.653166       1
       10247.005       140.48818       12.986391       1
       10259.304       174.69767       10.537683       1
       10271.603       186.22721       13.041702       1
       10283.903       205.28545       10.583373       1
       10296.202       172.95844       12.888025       1
       10308.501       181.76385       10.658906       1
       10320.800       170.90901       12.797725       1
       10333.099       189.85515       10.473553       1
       10345.398       194.41183       12.864925       1
       10357.698       201.53303       11.444730       1
       10369.997       159.89305       12.676512       1
       10382.296       182.14051       10.369315       1
       10394.595       163.32889       12.743034       1
       10406.894       183.65520       10.337178       1
       10419.193       179.39800       12.802857       1
       10431.493       188.11887       10.363495       1
       10443.792       186.66528       12.780271       1
       10456.091       202.08617       10.406894       1
       10468.390       189.76066       12.759253       1
       10480.689       179.91602       10.287769       1
       10492.988       191.92216       12.772284       1
       10505.288       175.20509       10.254123       1
       10517.587       167.30961       10.498342       1
       10529.886       189.26760       10.325802       1
       10542.185       176.06306       12.684721       1
       10554.484       196.80513       11.034955       1
       10566.783       189.86664       12.742695       1
       10579.083       210.19842       10.381017       1
       10591.382       170.81467       12.615932       1
       10603.681       220.11140       10.396288       1
       10615.980       172.69334       12.606385       1
       10628.279       157.03437       10.981989       1
       10640.578       132.13386       12.331414       1
       10652.878       147.58238       10.052444       1
       10665.177       157.70333       12.429792       1
       10677.476       156.30695       10.061596       1
       10689.775       138.72233       12.298780       1
       10702.074       140.31540       9.9834978       1
       10714.373       143.17801       12.289263       1
       10726.673       134.29906       9.9523335       1
       10738.972       133.12863       12.240502       1
       10751.271       143.30914       9.9070733       1
       10763.570       131.80648       12.185575       1
       10775.869       161.05912       10.065990       1
       10788.168       131.91332       12.502833       1
       10800.468       133.61469       9.9109384       1
       10812.767       154.44938       12.606077       1
       10825.066       135.48299       9.8795093       1
       10837.365       155.49095       12.282938       1
       10849.664       155.69843       9.9606941       1
       10861.963       145.74538       12.188425       1
       10874.262       148.51797       9.9084398       1
       10886.562       121.52155       12.064296       1
       10898.861       124.30286       9.7740376       1
       10911.160       122.95182       12.631986       1
       10923.459       145.49694       9.8704996       1
       10935.758       136.90163       12.110826       1
       10948.057       143.83599       9.8682108       1
       10960.357       113.26241       12.015700       1
       10972.656       143.52685       9.8352841       1
       10984.955       141.42033       12.159129       1
       10997.254       137.32626       9.7920387       1
       11009.553       103.72988       9.7493605       1
       11021.852       143.34223       10.751844       1
       11034.152       137.70967       12.099297       1
       11046.451       137.91955       9.7750358       1
       11058.750       120.07290       12.029529       1
       11071.049       214.24690       9.6564918       1
       11083.348       185.85970       11.924595       1
       11095.647       218.15654       9.6503893       1
       11107.947       210.16565       12.012616       1
       11120.246       210.36772       9.6293135       1
       11132.545       207.87541       12.007069       1
       11144.844       214.24367       9.6535588       1
       11157.143       203.61204       11.955213       1
       11169.442       193.72757       9.5854818       1
       11181.742       208.97854       12.015928       1
       11194.041       230.57768       9.7315754       1
       11206.340       197.59919       11.966877       0
       11218.639       211.20641       12.381901       0
       11230.938       191.58176       11.912379       0
       11243.237       204.70021       9.5528502       0
       11255.537       203.47785       11.974223       0
       11267.836       218.65394       9.6834254       0
       11280.135       191.48088       11.893799       0
       11292.434       184.05587       9.5270957       0
       11304.733       211.97773       12.004245       0
       11317.032       200.69471       9.6168062       0
       11329.332       157.84982       11.834391       0
       11341.631       196.60560       9.6571527       0
       11353.930       177.92774       12.199859       0
       11366.229       188.81763       10.034030       0
       11378.528       165.31779       12.706731       0
       11390.827       195.68415       10.651868       0
       11403.127       200.24180       13.870850       0
       11415.426       192.28096       11.617649       0
       11427.725       200.85868       15.497589       0
       11440.024       231.97572       13.030733       0
       11452.323       243.00971       17.371769       0
       11464.622       251.51945       14.789275       0
       11476.922       194.96078       19.384441       0
       11489.221       271.30300       16.476518       0
       11501.520       200.90722       21.417385       0
       11513.819       233.19943       18.121060       0
       11526.118       77.610309       23.445501       0
       11538.417       141.30297       25.153383       0
       11550.716       340.96471       27.328637       0
       11563.016       240.01825       23.584280       0
       11575.315       117.90408       32.034285       0
       11587.614       265.38678       28.776995       0
       11599.913       316.26336       40.061845       0
       11612.212       185.39462       35.549667       0
       11624.511      -149.83089       48.850734       0
       11636.811       375.43584       43.567250       0
       11649.110      -426.32964       59.217897       0
       11661.409       375.05241       52.680368       0
       11673.708       305.29695       73.685776       0
       11686.007       900.75542       68.311610       0
       11698.306       830.36497       96.082253       0
       11710.606       2272.2671       88.550523       0
       11722.905       2308.7834       126.63878       0
       11735.204       3775.0080       114.94951       0
       11747.503       3669.3196       153.60162       0
       11759.802       3357.3488       126.03319       0
       11772.101       252.82656       155.60875       0
       11784.401       2221.7291       123.97886       0
       11796.700       1466.9079       151.68224       0
       11808.999       1201.5694       121.94347       0
       11821.298      -3461.2915       153.81165       0
       11833.597       3836.7548       135.08481       0
       11845.896       4183.5303       176.60971       0
       11858.196       6809.8030       154.65424       0
       11870.495       13094.203       210.03997       0
       11882.794       7525.0873       182.81524       0
       11895.093       7366.0969       243.19364       0
       11907.392       6680.6811       209.17964       0
       11919.691       4519.3261       278.84716       0
       11931.991       153.86402       243.00427       0
