#WAVELENGTH FLUX ERROR MASK
       7498.2436       8483.7373       360.25081       0
       7510.4843       11056.333       412.92146       0
       7522.7249       6933.8721       303.06997       0
       7534.9655       4342.7524       346.69560       0
       7547.2062       2400.9264       250.83823       0
       7559.4468      -2568.7886       272.74957       0
       7571.6874       631.13757       197.25885       0
       7583.9281       909.12910       219.88384       0
       7596.1687       478.71672       160.04009       0
       7608.4094      -858.96914       180.98523       0
       7620.6500      -871.58925       140.04929       0
       7632.8906       1166.8447       154.93224       0
       7645.1313      -5726.7545       109.37908       0
       7657.3719       443.05641       134.11308       0
       7669.6125      -113.34750       102.33611       0
       7681.8532       15.381458       113.63187       0
       7694.0938      -97.146308       82.133037       0
       7706.3344      -82.240152       93.710744       0
       7718.5751      -6.5630480       69.931012       0
       7730.8157      -159.47380       82.025496       0
       7743.0563       23.358627       62.409128       0
       7755.2970       88.993651       74.923788       0
       7767.5376      -146.06562       57.192550       0
       7779.7783       104.60640       68.451477       0
       7792.0189      -355.55438       52.447002       0
       7804.2595      -417.08924       57.364047       0
       7816.5002      -271.63235       46.955604       0
       7828.7408      -251.56191       55.081627       0
       7840.9814      -80.559525       42.030835       0
       7853.2221      -199.40337       49.523973       0
       7865.4627      -119.31810       37.804858       0
       7877.7033      -66.368430       45.115202       0
       7889.9440      -69.987031       34.719069       0
       7902.1846      -107.14513       41.495110       0
       7914.4253      -83.654701       32.476091       0
       7926.6659      -24.936283       39.284228       0
       7938.9065      -75.310420       30.584903       0
       7951.1472      -62.120764       37.149493       0
       7963.3878      -87.549049       29.052660       0
       7975.6284       34.942245       35.486777       0
       7987.8691       12.500851       29.017301       0
       8000.1097      -28.218978       33.886205       0
       8012.3503       10.302652       26.890283       0
       8024.5910      -30.213639       30.308444       0
       8036.8316      -5.7417220       26.169381       0
       8049.0723       41.413867       32.228038       0
       8061.3129      -39.091325       26.399609       0
       8073.5535       6.6903396       31.439380       0
       8085.7942      -70.036672       24.847859       0
       8098.0348      -37.056646       30.639773       0
       8110.2754       35.549242       24.590031       0
       8122.5161       48.798514       30.319656       0
       8134.7567      -39.874012       23.923918       0
       8146.9973       32.852343       29.697628       0
       8159.2380       66.524258       23.624859       1
       8171.4786      -30.692324       28.999758       1
       8183.7192       80.111909       23.236885       1
       8195.9599      -1.8746779       28.475732       1
       8208.2005       34.314342       22.740732       1
       8220.4412       65.866636       31.479664       1
       8232.6818       42.163109       22.147970       1
       8244.9224       16.527323       27.183069       1
       8257.1631       90.384707       21.707458       1
       8269.4037       48.342412       27.520838       1
       8281.6443       85.428486       21.720204       1
       8293.8850       48.062927       26.837828       1
       8306.1256       44.702220       21.141834       1
       8318.3662       46.686776       26.243838       1
       8330.6069       61.611764       20.691852       1
       8342.8475       100.77462       26.020702       1
       8355.0882       89.715600       20.546255       1
       8367.3288       53.107316       25.471862       1
       8379.5694       99.118444       20.175109       1
       8391.8101       52.143730       25.011406       1
       8404.0507       82.816287       19.885995       1
       8416.2913       102.06392       24.952713       1
       8428.5320       123.29283       19.674126       1
       8440.7726       62.338124       24.417931       1
       8453.0132       76.838270       19.507675       1
       8465.2539       61.487062       24.062398       1
       8477.4945       80.707583       19.199047       1
       8489.7352       107.69089       23.795603       1
       8501.9758       87.711514       18.742510       1
       8514.2164       89.195117       23.386227       1
       8526.4571       107.26427       18.594876       1
       8538.6977       76.951612       23.186532       1
       8550.9383       65.377744       18.331002       1
       8563.1790       110.55495       23.132669       1
       8575.4196       38.021896       18.186247       1
       8587.6602       65.112122       22.940907       1
       8599.9009       88.466625       18.169568       1
       8612.1415       138.82971       20.964545       1
       8624.3822       83.173719       18.086087       1
       8636.6228       91.426360       25.244685       1
       8648.8634       78.388185       17.977956       1
       8661.1041       77.663834       23.966151       1
       8673.3447       81.109447       17.836185       1
       8685.5853       126.14128       22.553577       1
       8697.8260       82.092045       17.574109       1
       8710.0666       86.859443       21.938722       1
       8722.3072       89.859108       17.338823       1
       8734.5479       124.95392       21.695764       1
       8746.7885       102.62621       17.071397       1
       8759.0291       109.84148       21.221164       1
       8771.2698       81.052355       16.747076       1
       8783.5104       109.09721       21.374975       1
       8795.7511       96.015820       17.288059       1
       8807.9917       154.76692       21.124533       1
       8820.2323       87.712633       16.326246       1
       8832.4730       123.76601       21.099418       1
       8844.7136       60.692160       18.301056       1
       8856.9542       111.63566       21.884536       1
       8869.1949       83.533713       16.103731       1
       8881.4355       89.885972       20.401910       1
       8893.6761       85.091435       15.992120       1
       8905.9168       63.493477       19.982773       1
       8918.1574       102.25799       15.912794       1
       8930.3981       136.42208       20.093618       1
       8942.6387       58.795412       15.662700       1
       8954.8793       76.279372       19.473100       1
       8967.1200       87.052397       15.462713       1
       8979.3606       117.74987       17.784987       1
       8991.6012       120.78074       15.502770       1
       9003.8419       61.870383       19.257851       1
       9016.0825       82.846463       15.369264       1
       9028.3231       101.54143       19.352119       1
       9040.5638       82.495851       16.448350       1
       9052.8044       100.97209       19.296257       1
       9065.0451       87.199268       16.405476       1
       9077.2857       67.858370       18.780185       1
       9089.5263       95.228012       17.926907       1
       9101.7670       72.461664       18.874905       1
       9114.0076       91.004019       17.093826       1
       9126.2482       95.661074       18.734033       1
       9138.4889       72.669636       16.092807       1
       9150.7295       90.389188       18.638999       1
       9162.9701       98.818767       17.908371       1
       9175.2108       63.075073       18.336872       1
       9187.4514       86.064217       15.781409       1
       9199.6920       66.381750       18.010169       1
       9211.9327       93.082966       14.443874       1
       9224.1733       83.033550       17.361594       1
       9236.4140       83.604324       13.916660       1
       9248.6546       81.299844       17.241506       1
       9260.8952       92.433616       14.942705       1
       9273.1359       94.628490       17.220178       1
       9285.3765       109.38565       13.873850       1
       9297.6171       108.77743       17.240442       1
       9309.8578       93.053780       13.739945       1
       9322.0984       99.010919       15.719104       1
       9334.3390       94.626332       13.735443       1
       9346.5797       69.517261       16.861941       1
       9358.8203       83.585415       15.893599       1
       9371.0610       90.596459       16.895348       1
       9383.3016       84.742271       13.535270       1
       9395.5422       77.182461       18.146157       1
       9407.7829       93.440961       13.419562       1
       9420.0235       116.29608       16.865371       1
       9432.2641       103.29706       13.443742       1
       9444.5048       99.898011       16.667250       1
       9456.7454       84.184839       13.276759       1
       9468.9860       95.805732       16.521659       1
       9481.2267       105.91893       13.224349       1
       9493.4673       111.53321       18.587484       1
       9505.7080       112.64672       13.785921       1
       9517.9486       105.12265       16.341972       1
       9530.1892       108.11449       13.158043       1
       9542.4299       97.884149       16.265792       1
       9554.6705       106.17164       13.077451       1
       9566.9111       87.385949       16.157204       1
       9579.1518       102.81668       13.626478       1
       9591.3924       122.28249       16.218217       1
       9603.6330       102.77009       12.918256       1
       9615.8737       116.74811       16.129433       1
       9628.1143       89.072080       12.828499       1
       9640.3550       95.401384       15.977944       1
       9652.5956       100.59929       12.823862       1
       9664.8362       97.428028       15.905911       1
       9677.0769       96.256766       12.730701       1
       9689.3175       94.658865       15.851834       1
       9701.5581       87.600462       13.268666       1
       9713.7988       70.454779       15.624370       1
       9726.0394       83.383237       13.200240       1
       9738.2800       97.977930       15.751437       1
       9750.5207       95.378601       12.556110       1
       9762.7613       110.20410       15.703459       1
       9775.0019       106.22311       13.180555       1
       9787.2426       97.307392       15.593016       1
       9799.4832       97.909797       13.068881       1
       9811.7239       102.62567       15.560051       1
       9823.9645       90.854005       12.435673       1
       9836.2051       92.034846       15.444654       1
       9848.4458       101.98668       14.314970       1
       9860.6864       115.15407       15.557432       1
       9872.9270       80.623283       12.843730       1
       9885.1677       89.187930       15.427520       1
       9897.4083       113.02702       12.434095       1
       9909.6489       109.72710       15.415417       1
       9921.8896       88.708063       12.345198       1
       9934.1302       112.03212       15.344863       1
       9946.3709       95.563242       12.296801       1
       9958.6115       67.445532       15.085784       1
       9970.8521       88.219870       12.210595       1
       9983.0928       110.83314       15.562705       1
       9995.3334       88.754110       12.140246       1
       10007.574       94.150182       15.121634       1
       10019.815       84.564330       12.041331       1
       10032.055       98.995239       15.082616       1
       10044.296       108.54390       12.088427       1
       10056.537       117.24261       15.070043       1
       10068.777       83.977996       12.013168       1
       10081.018       108.63929       14.974989       1
       10093.258       89.200896       14.210416       1
       10105.499       98.226474       13.882129       1
       10117.740       96.696172       12.482364       1
       10129.980       114.30690       15.042262       1
       10142.221       83.517492       12.419302       1
       10154.462       100.54877       14.923251       1
       10166.702       88.206693       11.864936       1
       10178.943       61.402421       14.133073       1
       10191.184       104.56243       12.197051       1
       10203.424       75.743734       15.247889       1
       10215.665       96.902509       12.130653       1
       10227.905       86.996537       15.222853       1
       10240.146       75.869297       12.055313       1
       10252.387       98.078051       15.243375       1
       10264.627       106.96618       12.057094       1
       10276.868       95.773837       15.130854       1
       10289.109       96.130318       11.993209       1
       10301.349       107.51508       15.112419       1
       10313.590       91.796186       11.928056       1
       10325.831       100.57103       14.994936       1
       10338.071       101.27440       11.873521       1
       10350.312       93.289754       14.940519       1
       10362.552       112.16768       11.917190       1
       10374.793       106.00430       14.945361       1
       10387.034       118.47633       11.917108       1
       10399.274       79.932925       14.851658       1
       10411.515       92.074343       11.789356       1
       10423.756       103.59513       14.910558       1
       10435.996       92.258253       11.919858       1
       10448.237       95.149237       14.835694       1
       10460.478       114.31063       11.871694       1
       10472.718       116.69345       14.928476       1
       10484.959       119.44517       11.878382       1
       10497.199       110.23074       14.833040       1
       10509.440       94.660071       11.762635       1
       10521.681       118.82486       14.910164       1
       10533.921       112.10035       11.858657       1
       10546.162       128.48955       14.952269       1
       10558.403       94.977089       11.772903       1
       10570.643       88.699661       14.700475       1
       10582.884       93.647135       11.765902       1
       10595.125       103.38536       14.811214       1
       10607.365       98.950494       11.784558       1
       10619.606       109.85021       14.847227       1
       10631.846       98.253189       11.738760       1
       10644.087       117.27003       14.766811       1
       10656.328       109.38097       11.693395       1
       10668.568       114.24057       16.367351       1
       10680.809       101.94072       11.629527       1
       10693.050       110.71167       14.543284       1
       10705.290       101.41867       11.562360       1
       10717.531       98.093765       14.505411       1
       10729.772       111.75963       11.607925       1
       10742.012       92.087960       14.487082       1
       10754.253       107.07239       11.570129       1
       10766.493       90.660538       14.519556       1
       10778.734       118.62497       11.618090       1
       10790.975       98.339462       14.460746       1
       10803.215       101.95463       11.529254       1
       10815.456       111.16568       14.478762       1
       10827.697       101.44551       11.507394       1
       10839.937       107.96962       14.556004       1
       10852.178       105.28795       11.502626       1
       10864.419       93.589000       14.439666       1
       10876.659       99.964497       11.483588       1
       10888.900       100.58092       14.333859       1
       10901.140       89.607963       13.379763       1
       10913.381       82.227129       13.269313       1
       10925.622       105.08991       11.414643       1
       10937.862       112.78307       14.388274       1
       10950.103       101.62420       11.367093       1
       10962.344       85.405288       14.259244       1
       10974.584       104.63353       11.374553       1
       10986.825       115.31335       14.406985       1
       10999.066       102.87466       11.378691       1
       11011.306       103.65044       14.351198       1
       11023.547       98.131637       11.348626       1
       11035.787       109.90675       14.381462       1
       11048.028       97.056306       11.368080       1
       11060.269       93.204805       14.225644       1
       11072.509       91.250392       11.345152       1
       11084.750       104.60542       14.221852       1
       11096.991       94.453356       11.341327       1
       11109.231       79.639032       14.138589       1
       11121.472       98.038612       11.359812       1
       11133.713       113.72564       13.810221       1
       11145.953       111.67926       11.126696       1
       11158.194       95.630649       13.802018       1
       11170.434       106.91352       11.062089       1
       11182.675       101.91482       13.747064       1
       11194.916       101.24000       11.075747       1
       11207.156       110.81318       13.862433       0
       11219.397       113.00081       11.137413       0
       11231.638       100.38077       13.788166       0
       11243.878       109.27018       11.096822       0
       11256.119       90.863701       13.732001       0
       11268.360       105.06744       12.708908       0
       11280.600       109.48589       13.864083       0
       11292.841       108.45532       11.088666       0
       11305.081       103.23088       13.767803       0
       11317.322       106.26722       11.092233       0
       11329.563       113.89420       13.804951       0
       11341.803       110.02267       11.611516       0
       11354.044       105.69085       13.780076       0
       11366.285       109.12706       11.192909       0
       11378.525       116.67456       14.083158       0
       11390.766       92.555102       11.385353       0
       11403.007       88.458185       14.427322       0
       11415.247       79.216292       11.860867       0
       11427.488       92.601243       15.319459       0
       11439.728       83.360329       12.884769       0
       11451.969       96.386111       16.882238       0
       11464.210       95.251188       14.352169       0
       11476.450       66.109562       18.846073       0
       11488.691       104.15607       16.175407       0
       11500.932       107.63763       21.484074       0
       11513.172       70.046078       18.154127       0
       11525.413       71.318548       23.960097       0
       11537.654       108.36864       20.517665       0
       11549.894       154.87415       26.504173       0
       11562.135       161.38890       22.448891       0
       11574.375       127.63790       29.588028       0
       11586.616       110.57023       25.372780       0
       11598.857       142.48439       34.197813       0
       11611.097       94.316288       29.983545       0
       11623.338       100.16971       41.115800       0
       11635.579       293.17146       36.939681       0
       11647.819       163.50130       50.783509       0
       11660.060       40.169289       45.316341       0
       11672.301       6.1410254       62.104022       0
       11684.541       272.29767       55.026652       0
       11696.782      -541.49327       74.338735       0
       11709.022       49.448878       66.258114       0
       11721.263       133.11154       93.411849       0
       11733.504      -505.42360       85.312726       0
       11745.744       127.40754       121.19864       0
       11757.985       1008.9169       111.01598       0
       11770.226      -619.28587       157.97378       0
       11782.466       1808.8877       147.94155       0
       11794.707      -2389.3334       184.20434       0
       11806.948       1646.2363       151.87928       0
       11819.188       515.04770       187.59975       0
       11831.429       1240.4540       149.08569       0
       11843.669      -1505.7720       181.58755       0
       11855.910       457.22116       147.36131       0
       11868.151       1038.2254       188.70940       0
       11880.391       1568.0166       159.00739       0
       11892.632      -128.43817       213.89302       0
