#WAVELENGTH FLUX ERROR MASK
       10221.866       1307.2059       165.72882       0
       10245.110      -1536.0979       149.90798       0
       10268.354       1471.3692       143.33763       0
       10291.598      -892.41997       123.13600       0
       10314.842      -2.8268940       120.96493       0
       10338.086       773.55485       110.13817       0
       10361.330       134.36601       109.34951       0
       10384.574       1080.9231       101.59542       0
       10407.818       589.73442       100.13721       0
       10431.062      -319.29580       89.176677       0
       10454.306       178.98569       87.500368       0
       10477.550      -53.419979       76.871595       0
       10500.793       133.87651       73.549299       0
       10524.037       347.75067       65.828104       0
       10547.281       179.67167       52.592744       0
       10570.525       630.68155       57.317377       0
       10593.769       1.7196747       55.292072       0
       10617.013       425.02526       50.981952       0
       10640.257       239.03015       50.034632       0
       10663.501       469.54199       45.879277       0
       10686.745       240.94087       44.311698       0
       10709.989       292.36804       39.468874       0
       10733.233       318.32958       37.982647       0
       10756.477       307.59722       33.308004       0
       10779.721       221.67267       31.604421       0
       10802.964       157.79084       27.712461       0
       10826.208       188.53036       26.810445       0
       10849.452       210.35465       24.615846       0
       10872.696       212.39784       24.326653       0
       10895.940       178.79901       22.248689       0
       10919.184       216.37264       22.534734       0
       10942.428       202.14376       20.841123       0
       10965.672       215.70368       21.075978       0
       10988.916       236.14765       19.874347       0
       11012.160       226.27675       21.591839       1
       11035.404       212.35062       18.627540       1
       11058.648       200.06780       18.671709       1
       11081.892       190.91205       17.547462       1
       11105.135       199.38966       18.106548       1
       11128.379       182.60940       16.700121       1
       11151.623       151.05720       17.005302       1
       11174.867       180.62011       16.263876       1
       11198.111       190.30213       6618594.4       1
       11221.355       188.01391       16.295155       1
       11244.599       189.82460       17.801560       1
       11267.843       180.87286       16.085105       1
       11291.087       194.61546       17.705436       1
       11314.331       180.72386       15.952610       1
       11337.575       199.86589       16.659864       1
       11360.819       194.75608       15.918449       1
       11384.063       179.76709       16.362869       1
       11407.306       185.02237       15.622598       1
       11430.550       175.06876       16.133691       1
       11453.794       163.99962       15.530677       1
       11477.038       138.18336       15.804374       1
       11500.282       121.83658       15.142562       1
       11523.526       118.20584       15.430706       1
       11546.770       139.28854       15.108794       1
       11570.014       116.37874       15.526164       1
       11593.258       146.99029       15.067659       1
       11616.502       127.22272       15.484825       1
       11639.746       124.89747       14.871615       1
       11662.990       119.30043       15.294871       1
       11686.234       149.67241       14.897064       1
       11709.477       145.04039       15.351114       1
       11732.721       153.42161       14.821396       1
       11755.965       127.80627       15.121764       1
       11779.209       157.50523       14.669556       1
       11802.453       120.29497       14.905171       1
       11825.697       145.64932       14.395548       1
       11848.941       153.86160       15.023637       1
       11872.185       99.373666       11.878351       1
       11895.429       130.32513       14.737457       1
       11918.673       156.12315       14.316668       1
       11941.917       143.76337       14.745313       1
       11965.161       139.20182       14.111749       1
       11988.405       128.76218       14.621308       1
       12011.648       140.80178       13.938656       1
       12034.892       125.78634       14.449589       1
       12058.136       135.09004       13.829637       1
       12081.380       134.61315       14.409994       1
       12104.624       111.98430       13.353094       1
       12127.868       134.65683       14.363079       1
       12151.112       121.37111       13.592383       1
       12174.356       121.29139       14.182702       1
       12197.600       128.68104       13.663165       1
       12220.844       127.23308       14.088092       1
       12244.088       127.54159       13.447218       1
       12267.332       118.73343       13.983797       1
       12290.576       124.36388       13.471589       1
       12313.819       128.36232       14.049789       1
       12337.063       122.00862       13.354645       1
       12360.307       123.48978       13.816418       1
       12383.551       102.58435       13.099286       1
       12406.795       143.29418       13.937696       1
       12430.039       114.00111       13.202747       1
       12453.283       133.28303       13.891234       1
       12476.527       139.34304       13.397992       1
       12499.771       135.57087       13.884951       1
       12523.015       127.27838       13.217756       1
       12546.259       132.90727       13.695886       1
       12569.503       123.94144       13.067007       1
       12592.747       129.15950       13.778027       1
       12615.990       158.20007       13.343411       1
       12639.234       130.06742       13.692221       1
       12662.478       202.96467       14.576266       1
       12685.722       184.75977       14.462546       1
       12708.966       194.37633       14.130579       1
       12732.210       188.62617       14.357650       1
       12755.454       182.28250       13.980468       1
       12778.698       185.35825       14.230421       1
       12801.942       200.76831       13.988532       1
       12825.186       191.12675       14.253158       1
       12848.430       195.86679       13.978370       1
       12871.674       200.21006       14.246092       1
       12894.918       190.02989       13.941744       1
       12918.161       179.53003       14.133288       1
       12941.405       187.14294       13.894007       1
       12964.649       200.88558       14.214453       1
       12987.893       190.52796       13.811165       1
       13011.137       187.88976       13.966757       1
       13034.381       204.85620       13.887664       1
       13057.625       182.81241       13.895051       1
       13080.869       199.53843       13.783638       1
       13104.113       193.20897       13.944155       1
       13127.357       190.54036       13.620808       1
       13150.601       193.18734       13.903011       1
       13173.845       197.09944       13.673886       1
       13197.089       203.41131       13.843652       1
       13220.332       172.16971       13.324202       1
       13243.576       180.36561       13.651121       1
       13266.820       188.70832       13.444840       1
       13290.064       176.70389       13.499021       1
       13313.308       184.23293       13.375846       1
       13336.552       189.21213       13.684333       1
       13359.796       176.35597       13.403981       1
       13383.040       191.66260       13.692140       1
       13406.284       185.00252       13.368228       1
       13429.528       191.89864       13.628396       1
       13452.772       196.69339       13.309463       1
       13476.016       178.83425       13.392205       1
       13499.260       170.46725       13.140089       1
       13522.503       164.16735       13.288383       1
       13545.747       177.74338       13.184476       1
       13568.991       161.03431       13.242360       1
       13592.235       171.28142       13.111062       1
       13615.479       160.33536       13.198553       1
       13638.723       159.84581       13.063524       1
       13661.967       167.88745       13.309503       1
       13685.211       161.15271       13.030417       1
       13708.455       176.05795       13.389426       1
       13731.699       178.16949       13.176625       1
       13754.943       176.45352       13.398546       1
       13778.187       188.32049       13.269489       1
       13801.430       177.90209       13.415396       1
       13824.674       180.74065       13.240171       1
       13847.918       133.84316       13.077265       1
       13871.162       131.38009       12.805327       1
       13894.406       126.47427       12.900338       1
       13917.650       134.71490       12.744511       1
       13940.894       126.64681       12.903137       1
       13964.138       115.70787       12.616122       1
       13987.382       118.94086       12.799083       1
       14010.626       128.07306       12.644246       1
       14033.870       131.68010       12.931260       1
       14057.114       131.42055       12.680883       1
       14080.358       127.75752       12.765341       1
       14103.601       127.33472       12.542624       1
       14126.845       120.13226       12.683015       1
       14150.089       130.57505       12.614954       1
       14173.333       123.66332       12.643925       1
       14196.577       136.52466       12.640531       1
       14219.821       135.11672       12.745774       1
       14243.065       126.38603       12.480834       1
       14266.309       132.59534       12.743966       1
       14289.553       136.49813       12.584400       1
       14312.797       141.48538       12.809898       1
       14336.041       138.26390       12.513896       1
       14359.285       128.40312       12.605479       1
       14382.529       128.74905       12.436764       1
       14405.772       125.33242       12.553316       1
       14429.016       124.73104       12.373261       1
       14452.260       119.86889       12.401769       1
       14475.504       123.06691       12.344117       1
       14498.748       123.05404       12.536470       1
       14521.992       117.97490       12.251862       1
       14545.236       123.08120       12.506249       1
       14568.480       115.53242       12.239183       1
       14591.724       121.66364       12.485600       1
       14614.968       119.61445       12.294958       1
       14638.212       111.70107       12.420569       1
       14661.456       134.53858       12.463935       1
       14684.700       118.77162       12.473646       1
       14707.943       136.79178       12.432128       1
       14731.187       110.12927       12.388501       1
       14754.431       113.38719       12.120110       1
       14777.675       110.86670       12.286333       1
       14800.919       141.37942       12.059873       1
       14824.163       115.86424       12.395308       1
       14847.407       133.03258       12.198655       1
       14870.651       122.02469       12.432244       1
       14893.895       93.321558       10.504173       1
       14917.139       121.73755       13.109311       1
       14940.383       121.12195       12.199632       1
       14963.627       115.90028       12.750099       1
       14986.871       124.09250       12.107199       1
       15010.114       125.08822       12.413280       1
       15033.358       171.12157       12.234971       1
       15056.602       148.16916       12.140469       1
       15079.846       178.71861       12.106455       1
       15103.090       161.00621       12.372562       1
       15126.334       161.80049       12.039470       1
       15149.578       86.084437       10.026286       1
       15172.822       103.91242       9.3425850       1
       15196.066       172.47916       12.509640       1
       15219.310       177.29609       11.931046       1
       15242.554       183.15054       12.617616       1
       15265.798       166.75207       11.820390       1
       15289.042       164.62463       12.439309       1
       15312.285       169.98877       12.071348       1
       15335.529       160.03450       12.347804       1
       15358.773       190.13597       12.250185       1
       15382.017       160.19496       4565613.9       1
       15405.261       163.44202       12.363382       1
       15428.505       161.56408       12.464788       1
       15451.749       174.83593       12.382999       1
       15474.993       170.33009       4574517.2       1
       15498.237       178.77551       12.139966       1
       15521.481       181.02292       12.621053       1
       15544.725       188.54752       12.281599       1
       15567.969       163.33154       12.389802       1
       15591.213       180.61674       12.196524       1
       15614.456       165.45742       12.424340       1
       15637.700       149.43720       11.778482       1
       15660.944       170.10581       12.455479       1
       15684.188       160.04606       11.900103       1
       15707.432       160.80031       12.338213       1
       15730.676       160.42058       11.889371       1
       15753.920       151.22841       12.275351       1
       15777.164       156.62783       11.859182       1
       15800.408       153.75614       12.310020       1
       15823.652       158.55212       11.972253       1
       15846.896       145.59418       12.187533       1
       15870.140       159.34363       11.864360       1
       15893.384       153.62133       12.236123       1
       15916.627       164.91959       11.935037       1
       15939.871       145.00010       12.211051       1
       15963.115       150.33285       11.877467       1
       15986.359       156.97618       12.327746       1
       16009.603       153.73339       11.832992       1
       16032.847       134.52830       12.131339       1
       16056.091       123.48010       10.079227       1
       16079.335       150.07397       12.254349       1
       16102.579       150.44010       11.842429       1
       16125.823       141.44000       12.215615       1
       16149.067       138.97289       11.728556       1
       16172.311       143.44578       12.269329       1
       16195.555       141.89535       11.866669       1
       16218.798       117.23809       12.084254       1
       16242.042       101.99661       11.484941       1
       16265.286       124.40625       12.190687       1
       16288.530       115.63935       11.662058       1
       16311.774       103.70306       12.003922       1
       16335.018       120.03088       11.624532       1
       16358.262       125.43674       12.196434       1
       16381.506       109.46998       11.593017       1
       16404.750       116.21442       12.122141       1
       16427.994       98.959085       11.435272       1
       16451.238       100.71053       12.077646       1
       16474.482       93.359408       11.470526       1
       16497.726       106.98816       12.228531       1
       16520.969       99.466443       11.763702       1
       16544.213       133.13674       12.716698       1
       16567.457       116.85558       12.289138       1
       16590.701       87.569067       10.542953       1
       16613.945       114.77647       12.903006       1
       16637.189       103.21200       13.809226       1
       16660.433       100.96281       11.033484       1
       16683.677       108.87122       14.978818       1
       16706.921       116.06428       15.181139       1
       16730.165       113.13972       16.607026       1
       16753.409       106.62459       16.858290       0
       16776.653       153.11850       18.997713       0
       16799.897       98.826595       19.100869       0
       16823.140       89.532571       21.076182       0
       16846.384       113.98909       21.615856       0
       16869.628       113.52789       23.736764       0
       16892.872       136.58087       24.297156       0
       16916.116       229.19327       27.045019       0
       16939.360       95.507392       21.062547       0
       16962.604       191.89978       29.824197       0
       16985.848       110.02926       30.080666       0
       17009.092       204.11124       33.140355       0
       17032.336       145.11815       33.572505       0
       17055.580       128.70742       36.463727       0
       17078.824       148.79703       37.181177       0
       17102.067       42.600172       40.619950       0
       17125.311       131.85106       41.718221       0
       17148.555       225.32465       46.833682       0
       17171.799       264.16480       48.199153       0
       17195.043      -145.33922       53.183278       0
       17218.287       148.95043       55.075866       0
       17241.531       39.005221       60.337090       0
       17264.775       143.23436       61.873351       0
       17288.019       110.55451       67.611877       0
       17311.263      -98.055721       68.095462       0
       17334.507      -357.19143       73.936244       0
       17357.751       270.47002       76.126657       0
       17380.995       219.78967       83.596463       0
       17404.238       648.55851       88.283239       0
       17427.482       245.32826       92.824782       0
       17450.726       67.077681       96.353829       0
