#WAVELENGTH FLUX ERROR MASK
       10221.866      -1059.2287       167.85965       0
       10245.110       618.23699       157.10854       0
       10268.354      -278.61585       143.21118       0
       10291.598      -243.38977       117.23981       0
       10314.842      -1469.1287       115.55792       0
       10338.086      -533.06241       103.79837       0
       10361.330       1757.1033       107.51592       0
       10384.574       302.25907       95.343736       0
       10407.818       833.52233       98.056382       0
       10431.062       1091.5205       86.756619       0
       10454.306       963.39147       85.887925       0
       10477.550       617.00350       73.902352       0
       10500.793       57.487268       71.874099       0
       10524.037      -264.87738       61.708416       0
       10547.281      -74.932278       61.259529       0
       10570.525       540.11624       54.695789       0
       10593.769       586.70776       55.050305       0
       10617.013       737.01929       49.525211       0
       10640.257       44.451788       48.462361       0
       10663.501       442.93233       44.133777       0
       10686.745       365.13255       43.619016       0
       10709.989       390.78087       38.274442       0
       10733.233       268.91956       36.684687       0
       10756.477       382.31561       32.031252       0
       10779.721       202.32539       30.700777       0
       10802.964       349.85508       26.783435       0
       10826.208       204.86751       26.462286       0
       10849.452       304.86587       23.842975       0
       10872.696      -8.0405054       0.0000000       0
       10895.940       217.32052       21.426631       0
       10919.184       185.93231       21.864928       0
       10942.428       182.17459       19.924527       0
       10965.672       161.73202       20.408301       0
       10988.916       224.45144       18.821134       0
       11012.160       276.21659       19.763166       1
       11035.404       182.61123       17.335638       1
       11058.648       197.62132       18.306325       1
       11081.892       200.84734       16.601039       1
       11105.135       212.72173       18.731818       1
       11128.379       190.99355       16.109638       1
       11151.623       190.92029       17.030690       1
       11174.867       206.55037       15.850586       1
       11198.111       226.83442       16.663153       1
       11221.355       222.14018       15.793894       1
       11244.599       221.25384       16.023447       1
       11267.843       193.57886       15.248390       1
       11291.087       209.87792       16.472075       1
       11314.331       188.58672       15.215055       1
       11337.575       179.00121       16.072196       1
       11360.819       218.18434       15.295274       1
       11384.063       174.09815       15.978142       1
       11407.306       213.22743       15.085865       1
       11430.550       171.84220       15.826172       1
       11453.794       217.22054       15.160035       1
       11477.038       175.17970       15.580258       1
       11500.282       195.65404       14.946990       1
       11523.526       214.95407       15.971190       1
       11546.770       199.90042       14.995907       1
       11570.014       240.49585       16.137834       1
       11593.258       195.26801       14.802026       1
       11616.502       219.63726       15.539991       1
       11639.746       191.28479       14.632069       1
       11662.990       233.91960       15.814026       1
       11686.234       192.94283       14.613891       1
       11709.477       217.51054       15.541173       1
       11732.721       204.17039       14.501986       1
       11755.965       207.89030       15.291861       1
       11779.209       220.09033       14.452477       1
       11802.453       204.11220       15.133401       1
       11825.697       228.37229       14.320545       1
       11848.941       236.07662       15.298244       1
       11872.185       216.26258       14.128005       1
       11895.429       256.42460       15.298358       1
       11918.673       238.66144       14.309690       1
       11941.917       221.53202       14.935885       1
       11965.161       202.77901       14.010136       1
       11988.405       196.80285       14.797822       1
       12011.648       197.51426       13.929968       1
       12034.892       186.00116       14.585422       1
       12058.136       215.44921       13.923295       1
       12081.380       197.93074       14.460944       1
       12104.624       203.60614       13.788424       1
       12127.868       195.05686       14.516377       1
       12151.112       214.34538       13.729665       1
       12174.356       212.04763       14.530925       1
       12197.600       239.00238       13.928927       1
       12220.844       211.25078       14.428154       1
       12244.088       210.45993       9526753.6       1
       12267.332       200.05957       14.271313       1
       12290.576       216.57446       13.605812       1
       12313.819       206.87230       14.343584       1
       12337.063       225.87553       13.710151       1
       12360.307       230.04307       14.402535       1
       12383.551       232.74680       13.524656       1
       12406.795       221.74765       13.989743       1
       12430.039       242.89416       13.624329       1
       12453.283       250.99293       14.445279       1
       12476.527       241.36791       13.536916       1
       12499.771       213.66222       14.184786       1
       12523.015       227.87787       13.461400       1
       12546.259       222.40000       14.132828       1
       12569.503       226.71191       13.363869       1
       12592.747       216.89810       14.097828       1
       12615.990       258.25567       13.742118       1
       12639.234       226.07033       14.185395       1
       12662.478       152.02620       14.450721       1
       12685.722       161.44048       14.625113       1
       12708.966       138.61851       14.168178       1
       12732.210       151.23158       14.395522       1
       12755.454       127.08080       14.082351       1
       12778.698       177.51084       14.493965       1
       12801.942       149.19954       14.279509       1
       12825.186       160.73607       14.250602       1
       12848.430       160.15224       14.222423       1
       12871.674       179.88602       14.311127       1
       12894.918       162.74494       14.208004       1
       12918.161       182.64570       14.439058       1
       12941.405       136.57523       13.912356       1
       12964.649       148.71995       14.170181       1
       12987.893       145.35539       13.976474       1
       13011.137       194.56748       14.383651       1
       13034.381       130.13820       13.879263       1
       13057.625       168.76840       14.052505       1
       13080.869       186.55371       14.357106       1
       13104.113       170.18621       14.063569       1
       13127.357       174.94279       14.073430       1
       13150.601       175.62746       14.051719       1
       13173.845       178.00892       14.062179       1
       13197.089       182.02419       13.908117       1
       13220.332       148.51998       13.647996       1
       13243.576       154.81447       13.684876       1
       13266.820       159.26699       13.716832       1
       13290.064       164.58342       13.590639       1
       13313.308       159.81337       13.786008       1
       13336.552       198.62240       13.965488       1
       13359.796       152.70668       13.727369       1
       13383.040       232.92562       14.322005       1
       13406.284       143.32993       13.468452       1
       13429.528       189.72218       13.912090       1
       13452.772       194.92290       13.922190       1
       13476.016       206.31239       14.013160       1
       13499.260       198.80410       13.971050       1
       13522.503       185.43250       13.759276       1
       13545.747       169.67155       13.612236       1
       13568.991       191.37068       13.731396       1
       13592.235       177.86162       13.789821       1
       13615.479       170.04726       13.605567       1
       13638.723       172.60042       13.585725       1
       13661.967       197.49852       13.939803       1
       13685.211       156.28652       13.445081       1
       13708.455       189.35471       13.780777       1
       13731.699       184.61084       13.788125       1
       13754.943       182.82505       13.717452       1
       13778.187       168.85698       13.612385       1
       13801.430       152.30497       13.642380       1
       13824.674       179.91632       13.777209       1
       13847.918       208.77208       13.932247       1
       13871.162       186.49130       13.690662       1
       13894.406       167.89943       13.710550       1
       13917.650       159.79453       13.508949       1
       13940.894       206.86109       13.836784       1
       13964.138       165.09210       13.513792       1
       13987.382       211.99834       13.959904       1
       14010.626       182.33551       13.587663       1
       14033.870       189.56873       13.710422       1
       14057.114       177.43695       13.507594       1
       14080.358       206.74939       13.717558       1
       14103.601       183.51177       13.597040       1
       14126.845       192.78923       13.623437       1
       14150.089       166.19609       13.321108       1
       14173.333       187.83652       13.557918       1
       14196.577       201.10189       13.666712       1
       14219.821       215.98431       13.655787       1
       14243.065       167.27749       13.355103       1
       14266.309       207.38998       13.607852       1
       14289.553       202.93556       13.544863       1
       14312.797       196.05877       13.532023       1
       14336.041       194.97050       13.415944       1
       14359.285       199.72995       13.372685       1
       14382.529       195.46861       13.434461       1
       14405.772       203.01840       13.444738       1
       14429.016       190.67211       13.251058       1
       14452.260       172.03724       13.197462       1
       14475.504       189.55290       13.478740       1
       14498.748       192.77255       13.405618       1
       14521.992       195.26714       13.459144       1
       14545.236       212.17414       13.479932       1
       14568.480       197.65625       13.324039       1
       14591.724       196.16459       13.523008       1
       14614.968       185.99243       13.338323       1
       14638.212       199.37781       13.403113       1
       14661.456       197.35920       13.426723       1
       14684.700       203.34360       13.476135       1
       14707.943       189.59324       13.219745       1
       14731.187       172.05819       13.210964       1
       14754.431       198.00600       13.351938       1
       14777.675       190.93707       13.198510       1
       14800.919       175.68435       13.168208       1
       14824.163       199.63637       13.394957       1
       14847.407       192.04338       13.291836       1
       14870.651       191.17460       14.286115       1
       14893.895      -3.8439596       0.0000000       1
       14917.139       165.57611       13.711656       1
       14940.383       183.48928       13.131505       1
       14963.627       230.98842       14.664643       1
       14986.871       187.43445       13.244443       1
       15010.114       183.40853       13.152359       1
       15033.358       141.88791       11.362781       1
       15056.602       142.15482       12.076371       1
       15079.846       153.67602       11.160663       1
       15103.090       141.34750       11.945896       1
       15126.334       154.85546       11.473994       1
       15149.578       145.54259       12.024600       1
       15172.822       152.95677       11.396026       1
       15196.066       146.65875       11.937128       1
       15219.310       140.03663       11.259983       1
       15242.554       146.09410       11.993062       1
       15265.798       149.51501       11.314956       1
       15289.042       157.50859       11.863946       1
       15312.285       140.24704       11.179973       1
       15335.529       163.26018       12.089304       1
       15358.773       154.21790       11.271991       1
       15382.017       161.54775       12.173908       1
       15405.261       142.74591       11.251457       1
       15428.505       145.32455       12.029035       1
       15451.749       163.39640       11.466299       1
       15474.993       143.62480       12.043188       1
       15498.237       172.67923       11.593810       1
       15521.481       185.03568       12.384884       1
       15544.725       172.15308       11.557251       1
       15567.969       177.24769       12.239128       1
       15591.213       169.06457       11.563068       1
       15614.456       144.46062       12.016940       1
       15637.700       126.85962       11.119592       1
       15660.944       142.30365       11.899343       1
       15684.188       136.93711       11.297786       1
       15707.432       148.67893       11.986175       1
       15730.676       150.74268       11.286445       1
       15753.920       132.87527       11.832565       1
       15777.164       157.45838       11.220623       1
       15800.408       166.85454       12.165575       1
       15823.652       156.99034       11.338501       1
       15846.896       162.24916       12.127428       1
       15870.140       161.07935       11.362061       1
       15893.384       181.18790       12.307867       1
       15916.627       167.12538       11.439054       1
       15939.871       153.51997       12.053130       1
       15963.115       154.19872       11.327085       1
       15986.359       167.43571       12.229935       1
       16009.603       155.72196       11.413278       1
       16032.847       169.57240       12.268676       1
       16056.091       161.60108       11.506102       1
       16079.335       156.95531       12.076165       1
       16102.579       173.11494       11.581694       1
       16125.823       162.95880       12.031340       1
       16149.067       161.34346       11.389672       1
       16172.311       159.68680       12.192960       1
       16195.555       151.86623       11.398310       1
       16218.798       153.88015       12.165018       1
       16242.042       183.62435       11.752983       1
       16265.286       155.98072       12.251836       1
       16288.530       164.09511       11.526190       1
       16311.774       188.47066       12.560064       1
       16335.018       169.78263       11.694723       1
       16358.262       173.81599       12.442421       1
       16381.506       171.09905       11.661476       1
       16404.750       159.02740       12.285753       1
       16427.994       146.18207       12.059458       1
       16451.238       153.39881       12.241689       1
       16474.482       157.34883       11.594664       1
       16497.726       171.21078       12.524103       1
       16520.969       149.83306       11.782290       1
       16544.213       175.99387       12.843529       1
       16567.457       163.47267       12.217311       1
       16590.701       154.09158       13.076910       1
       16613.945       185.09903       12.879686       1
       16637.189      -4.3528268       0.0000000       1
       16660.433       151.49301       13.475743       1
       16683.677       207.59205       15.267968       1
       16706.921       134.84252       14.663367       1
       16730.165       154.10939       16.536631       1
       16753.409       200.57189       16.744355       0
       16776.653       137.89883       18.437980       0
       16799.897       248.68321       18.911713       0
       16823.140       144.01950       20.866905       0
       16846.384       215.33924       20.969912       0
       16869.628       221.38915       23.722383       0
       16892.872       214.26695       23.532026       0
       16916.116       177.88076       26.067545       0
       16939.360       192.95628       26.124942       0
       16962.604       336.87970       29.650002       0
       16985.848       171.76539       28.605925       0
       17009.092       181.54312       32.381034       0
       17032.336       365.42990       32.399435       0
       17055.580       163.14278       35.827245       0
       17078.824       116.71873       35.377205       0
       17102.067       289.99441       40.337069       0
       17125.311       322.07561       40.542064       0
       17148.555       93.650740       45.542955       0
       17171.799       113.34030       45.908079       0
       17195.043       18.097083       52.306113       0
       17218.287       295.51855       52.370987       0
       17241.531      -195.60874       58.172999       0
       17264.775      -140.89132       58.739685       0
       17288.019      -545.52725       65.019361       0
       17311.263       409.45201       65.155136       0
       17334.507       394.25837       73.599307       0
       17357.751       843.63613       73.493705       0
       17380.995       1449.4422       83.117033       0
       17404.238       908.36190       92.366041       0
       17427.482       549.53211       95.360606       0
       17450.726       859.22620       102.07223       0
