#WAVELENGTH FLUX ERROR MASK
       10233.427      -819.09641       151.58005       0
       10256.352       2654.3566       145.02678       0
       10279.278       623.32643       130.37469       0
       10302.203       135.64437       124.69521       0
       10325.128       701.31027       114.80236       0
       10348.054      -207.25556       110.50817       0
       10370.979      -405.59751       102.56250       0
       10393.905       1473.9272       103.12788       0
       10416.830      -804.24570       98.730869       0
       10439.755      -105.44873       93.223254       0
       10462.681       602.93443       87.567788       0
       10485.606       580.59972       80.227153       0
       10508.531      -580.16387       72.260626       0
       10531.457       285.90398       69.274026       0
       10554.382       443.14466       63.247320       0
       10577.307       429.42613       60.410948       0
       10600.233       576.09005       57.006270       0
       10623.158       150.58262       53.906221       0
       10646.084       728.61353       51.380173       0
       10669.009       656.32736       49.217656       0
       10691.934       291.29684       54.056566       0
       10714.860       534.39342       42.227270       0
       10737.785       874.29651       39.252998       0
       10760.710       226.40039       34.922917       0
       10783.636       297.09500       32.344320       0
       10806.561       358.46739       29.944642       0
       10829.487       224.38264       27.673301       0
       10852.412       293.54251       26.234351       0
       10875.337       206.80293       24.802205       0
       10898.263       223.25876       23.868348       0
       10921.188       171.27769       22.837298       0
       10944.113       215.53753       22.417286       0
       10967.039       265.39124       21.958659       0
       10989.964       185.86378       20.920135       0
       11012.890       388.37438       21.431045       1
       11035.815       214.97421       19.825602       1
       11058.740       274.59741       19.476530       1
       11081.666       248.38719       19.012532       1
       11104.591       240.60085       18.646524       1
       11127.516       261.74962       18.423586       1
       11150.442       290.57382       18.504188       1
       11173.367       271.62348       18.089343       1
       11196.292       248.80281       17.850374       1
       11219.218       267.52504       17.898883       1
       11242.143       259.07608       17.787605       1
       11265.069       243.09979       17.691677       1
       11287.994       262.56158       17.682415       1
       11310.919       297.04281       17.742249       1
       11333.845       271.21032       17.501314       1
       11356.770       256.07432       17.084308       1
       11379.695       304.39647       17.605795       1
       11402.621       267.04579       17.245171       1
       11425.546       274.59426       17.305004       1
       11448.472       236.08755       17.029538       1
       11471.397       303.75698       17.417247       1
       11494.322       286.99104       16.971274       1
       11517.248       295.45463       17.036496       1
       11540.173       240.41958       16.751753       1
       11563.098       282.26509       20.965050       1
       11586.024       233.16871       16.689763       1
       11608.949       256.48671       17.022323       1
       11631.875       298.72344       17.150698       1
       11654.800       235.80224       16.382353       1
       11677.725       272.44469       16.941277       1
       11700.651       286.29610       16.854353       1
       11723.576       330.56481       17.056868       1
       11746.501       227.67234       16.375501       1
       11769.427       266.10732       16.051952       1
       11792.352       250.78819       15.449174       1
       11815.277       250.08510       15.808400       1
       11838.203       282.96177       15.538805       1
       11861.128       238.33497       15.655636       1
       11884.054       274.40849       15.429457       1
       11906.979       258.53159       15.679569       1
       11929.904       298.08326       15.376145       1
       11952.830       243.92106       15.455654       1
       11975.755       133.77115       10.011165       1
       11998.680       243.54898       15.342586       1
       12021.606       253.50143       14.965544       1
       12044.531       288.99608       15.587115       1
       12067.457       255.65756       14.964126       1
       12090.382       250.35309       15.330977       1
       12113.307       248.84299       14.820143       1
       12136.233       257.03301       15.163779       1
       12159.158       238.01796       14.579163       1
       12182.083       191.06596       14.639710       1
       12205.009       244.60288       14.651112       1
       12227.934       236.60558       14.981274       1
       12250.860       238.90972       14.572311       1
       12273.785       242.30773       14.880415       1
       12296.710       224.72974       14.373784       1
       12319.636       260.72423       15.032749       1
       12342.561       227.04026       14.294003       1
       12365.486       223.95567       14.599912       1
       12388.412       236.22014       14.351315       1
       12411.337       242.28771       14.694581       1
       12434.262       248.42048       14.342949       1
       12457.188       231.25396       14.729076       1
       12480.113       257.93527       14.397430       1
       12503.039       245.03631       14.642564       1
       12525.964       238.94565       14.218023       1
       12548.889       226.72008       14.503914       1
       12571.815       248.16733       14.195255       1
       12594.740       234.61107       14.442808       1
       12617.665       245.38292       14.197201       1
       12640.591       228.55202       14.444464       1
       12663.516       241.31284       14.170246       1
       12686.442       234.25280       14.443465       1
       12709.367       238.62802       14.162610       1
       12732.292       214.48884       14.273497       1
       12755.218       245.82320       13.969101       1
       12778.143       238.89030       14.282280       1
       12801.068       252.02541       14.015150       1
       12823.994       230.42503       14.275671       1
       12846.919       269.38169       14.072542       1
       12869.845       126.21613       10.473007       1
       12892.770       233.14486       13.815582       1
       12915.695       246.42153       14.160244       1
       12938.621       255.71875       13.944804       1
       12961.546       242.13803       14.139514       1
       12984.471       279.85390       14.056581       1
       13007.397       249.69686       14.243963       1
       13030.322       312.10456       14.289296       1
       13053.247       218.67798       13.848645       1
       13076.173       259.22580       13.753786       1
       13099.098       244.96534       14.037363       1
       13122.024       270.60004       13.031205       1
       13144.949       217.85215       13.207738       1
       13167.874       248.72869       12.725805       1
       13190.800       239.88546       13.398719       1
       13213.725       232.64540       12.466086       1
       13236.650       227.73702       13.203648       1
       13259.576       233.82371       12.565055       1
       13282.501       220.64007       13.199329       1
       13305.427       228.72286       12.490531       1
       13328.352       220.85610       13.163142       1
       13351.277       247.87555       12.680535       1
       13374.203       234.03557       13.254533       1
       13397.128       254.56151       12.633153       1
       13420.053       231.74791       13.155272       1
       13442.979       229.67660       12.494749       1
       13465.904       195.42346       12.839836       1
       13488.830       225.07360       12.343916       1
       13511.755       248.83803       13.214592       1
       13534.680       229.69338       12.396133       1
       13557.606       195.91098       12.722901       1
       13580.531       222.02069       12.272490       1
       13603.456       204.18682       12.622617       1
       13626.382       206.57096       12.192411       1
       13649.307       221.37791       13.019818       1
       13672.232       210.03486       12.194085       1
       13695.158       229.55413       12.966791       1
       13718.083       243.44102       12.506136       1
       13741.009       215.72878       12.917858       1
       13763.934       237.25299       12.441893       1
       13786.859       232.62369       13.093742       1
       13809.785       227.59154       12.333232       1
       13832.710       210.55657       12.949125       1
       13855.635       229.34923       12.294998       1
       13878.561       215.98280       12.973120       1
       13901.486       238.14700       12.243174       1
       13924.412       213.83553       12.852118       1
       13947.337       224.13913       12.205181       1
       13970.262       236.62714       13.040698       1
       13993.188       262.61687       12.502927       1
       14016.113       258.48852       13.081426       1
       14039.038       242.76908       12.268899       1
       14061.964       215.76743       12.833817       1
       14084.889       219.87183       12.108597       1
       14107.815       234.03012       12.839325       1
       14130.740       266.01119       12.363368       1
       14153.665       244.95767       12.922080       1
       14176.591       249.59330       12.350368       1
       14199.516       229.04873       12.847192       1
       14222.441       252.29950       12.276389       1
       14245.367       243.95935       12.672418       1
       14268.292       253.04856       12.240197       1
       14291.217       239.86015       12.807502       1
       14314.143       232.13328       12.099542       1
       14337.068       222.55639       12.672096       1
       14359.994       238.87797       12.040359       1
       14382.919       244.35400       12.721482       1
       14405.844       248.91697       12.042648       1
       14428.770       249.72007       12.861603       1
       14451.695       237.71436       11.999978       1
       14474.620       256.33298       12.752363       1
       14497.546       220.80724       12.652096       1
       14520.471       200.04368       12.802885       1
       14543.397       203.61624       12.374593       1
       14566.322       202.99916       12.823386       1
       14589.247       219.83800       12.572096       1
       14612.173       228.23373       13.031260       1
       14635.098       191.81003       12.300957       1
       14658.023       201.48698       12.771596       1
       14680.949       195.24962       12.341085       1
       14703.874       217.52208       12.894003       1
       14726.799       192.55468       12.377634       1
       14749.725       195.15644       12.779731       1
       14772.650       218.09425       12.594891       1
       14795.576       219.14677       12.988580       1
       14818.501       194.78952       12.321998       1
       14841.426       202.09699       12.807108       1
       14864.352       195.45627       12.361386       1
       14887.277       212.96280       12.917708       1
       14910.202       208.11601       12.446337       1
       14933.128       205.64769       12.737662       1
       14956.053       204.69693       12.444420       1
       14978.979       180.22827       12.359199       1
       15001.904       199.94879       12.361609       1
       15024.829       192.73084       12.507719       1
       15047.755       185.34468       12.125266       1
       15070.680       208.63884       12.718452       1
       15093.605       196.35567       12.266027       1
       15116.531       207.30274       12.722366       1
       15139.456       202.60762       12.274300       1
       15162.382       207.49478       12.611381       1
       15185.307       213.00617       12.397178       1
       15208.232       211.26008       12.607278       1
       15231.158       197.71891       12.251022       1
       15254.083       209.05942       12.612752       1
       15277.008       219.36468       12.421227       1
       15299.934       205.64787       12.510663       1
       15322.859       204.04658       12.234291       1
       15345.784       218.01095       12.548882       1
       15368.710       185.67797       12.040443       1
       15391.635       190.46303       12.282763       1
       15414.561       202.68362       12.224853       1
       15437.486       202.63967       12.544387       1
       15460.411       215.95210       12.341908       1
       15483.337       213.13763       12.548259       1
       15506.262       194.56209       12.058901       1
       15529.187       210.38489       12.573967       1
       15552.113       200.25760       12.173240       1
       15575.038       209.23728       12.520055       1
       15597.964       204.95197       12.267383       1
       15620.889       205.51712       12.458386       1
       15643.814       195.15033       12.120805       1
       15666.740       205.79186       12.479947       1
       15689.665       217.53081       12.261124       1
       15712.590       210.17062       12.494774       1
       15735.516       210.44690       12.151023       1
       15758.441       210.31184       12.476568       1
       15781.367       210.64628       12.159614       1
       15804.292       206.02710       12.377103       1
       15827.217       186.20065       11.857578       1
       15850.143       211.06209       12.910192       1
       15873.068       222.97906       12.851577       1
       15895.993       215.65889       12.863661       1
       15918.919       213.99071       12.813188       1
       15941.844       236.94603       13.144987       1
       15964.769       212.86411       12.817661       1
       15987.695       191.68620       12.681473       1
       16010.620       214.01591       12.668911       1
       16033.546       192.66219       12.678161       1
       16056.471     -0.55314494       0.0000000       1
       16079.396       219.47626       12.809671       1
       16102.322     -0.48502838       0.0000000       1
       16125.247       166.85408       12.440672       1
       16148.172     -0.43954854       0.0000000       1
       16171.098       225.76919       12.976456       1
       16194.023     -0.39918793       0.0000000       1
       16216.949       209.15045       12.826105       1
       16239.874     -0.37191093       0.0000000       1
       16262.799       197.29668       12.709186       1
       16285.725     -0.35216341       0.0000000       1
       16308.650       240.49480       12.962157       1
       16331.575     -0.33021997       0.0000000       1
       16354.501     -0.31974249       0.0000000       1
       16377.426     -0.31196858       0.0000000       1
       16400.352     -0.30629086       0.0000000       1
       16423.277     -0.30203987       0.0000000       1
       16446.202     -0.29919251       0.0000000       1
       16469.128     -0.29865386       0.0000000       1
       16492.053     -0.30067746       0.0000000       1
       16514.978     -0.30555614       0.0000000       1
       16537.904     -0.31426871       0.0000000       1
       16560.829     -0.32784408       0.0000000       1
       16583.754     -0.34751323       0.0000000       1
       16606.680     -0.37398957       0.0000000       1
       16629.605     -0.40832934       0.0000000       1
       16652.531     -0.45195111       0.0000000       1
       16675.456     -0.50658700       0.0000000       1
       16698.381     -0.57447285       0.0000000       1
       16721.307     -0.65772595       0.0000000       1
       16744.232     -0.76004990       0.0000000       1
       16767.157     -0.88476292       0.0000000       0
       16790.083      -1.0360727       0.0000000       0
       16813.008      -1.2127071       0.0000000       0
       16835.934      -1.4181993       0.0000000       0
       16858.859      -1.6463895       0.0000000       0
       16881.784      -1.8966614       0.0000000       0
       16904.710      -2.1615765       0.0000000       0
       16927.635      -2.4416939       0.0000000       0
       16950.560      -2.7514754       0.0000000       0
       16973.486      -3.0843651       0.0000000       0
       16996.411      -3.4605956       0.0000000       0
       17019.337      -3.8796995       0.0000000       0
       17042.262      -4.3503553       0.0000000       0
       17065.187      -4.8547169       0.0000000       0
       17088.113      -5.3800206       0.0000000       0
       17111.038      -5.9474316       0.0000000       0
       17133.963      -6.6247256       0.0000000       0
       17156.889      -7.4231877       0.0000000       0
       17179.814      -8.4399116       0.0000000       0
       17202.739      -10.307730       0.0000000       0
       17225.665      -11.864978       0.0000000       0
       17248.590      -13.642042       0.0000000       0
       17271.516      -15.528758       0.0000000       0
       17294.441      -17.461144       0.0000000       0
       17317.366      -19.511007       0.0000000       0
       17340.292      -21.607767       0.0000000       0
       17363.217      -23.809456       0.0000000       0
