#WAVELENGTH FLUX ERROR MASK
       7469.2552       19132.722       392.79044       0
       7480.9904      -19901.063       472.17267       0
       7492.7255      -6254.5907       358.41650       0
       7504.4607      -14303.634       415.67081       0
       7516.1959      -37401.397       297.17233       0
       7527.9311      -6365.2053       356.06191       0
       7539.6662       15980.379       260.45941       0
       7551.4014      -2925.2682       289.25550       0
       7563.1366      -1882.4406       205.38298       0
       7574.8718       5503.6842       233.25383       0
       7586.6069       1274.8514       165.63305       0
       7598.3421      -7910.3577       189.32689       0
       7610.0773      -546.49147       138.96184       0
       7621.8125      -1563.4966       162.92570       0
       7633.5477      -2351.3737       118.48705       0
       7645.2828       6294.5500       145.21659       0
       7657.0180      -1364.1003       103.21244       0
       7668.7532      -501.17144       119.73671       0
       7680.4884       7.0351830       87.494947       0
       7692.2235       1213.4863       101.77968       0
       7703.9587      -125.19874       73.368496       0
       7715.6939       793.07892       87.660452       0
       7727.4291      -450.69483       64.192179       0
       7739.1642       688.46919       77.099513       0
       7750.8994      -72.781424       58.528170       0
       7762.6346       504.90539       71.712092       0
       7774.3698      -257.72255       53.847081       0
       7786.1050       261.72486       65.640684       0
       7797.8401       612.40197       50.157749       0
       7809.5753       155.02113       60.048602       0
       7821.3105       502.06732       45.160932       0
       7833.0457       608.63038       54.678155       0
       7844.7808       603.58242       41.149897       0
       7856.5160       428.13995       49.254816       0
       7868.2512       190.84875       36.832534       0
       7879.9864       483.93266       45.454542       0
       7891.7215       331.77927       34.470661       0
       7903.4567       526.56612       42.719773       0
       7915.1919       462.10826       32.755892       0
       7926.9271       515.38341       40.656369       0
       7938.6622       192.69585       30.964556       0
       7950.3974       441.19020       38.526500       0
       7962.1326       690.79189       30.195016       0
       7973.8678       273.84466       35.681031       0
       7985.6030       308.88346       28.675522       0
       7997.3381       589.19061       34.787580       0
       8009.0733       248.78563       27.559465       0
       8020.8085       464.63548       34.491056       0
       8032.5437       423.11162       27.170983       0
       8044.2788       244.42564       33.889173       0
       8056.0140       313.62515       24.851086       0
       8067.7492       238.81073       29.723669       0
       8079.4844       380.85089       24.052605       0
       8091.2195       253.41907       29.460605       0
       8102.9547       238.24856       23.704074       0
       8114.6899       181.34465       28.902896       0
       8126.4251       349.94324       23.745816       0
       8138.1603       111.09159       28.259033       0
       8149.8954       294.82918       23.192997       0
       8161.6306       464.65883       28.477500       1
       8173.3658       391.35297       22.780730       1
       8185.1010       279.87491       27.554426       1
       8196.8361       279.27557       22.302339       1
       8208.5713       320.84530       27.268164       1
       8220.3065       345.58159       22.103995       1
       8232.0417       254.77798       26.190703       1
       8243.7768       335.73093       21.597384       1
       8255.5120       314.70385       25.367300       1
       8267.2472       367.00906       21.238438       1
       8278.9824       256.16898       25.255561       1
       8290.7176       368.52470       20.782990       1
       8302.4527       373.73009       25.119680       1
       8314.1879       250.35162       20.123988       1
       8325.9231       347.15803       24.607040       1
       8337.6583       368.54534       19.892519       1
       8349.3934       301.57278       24.237426       1
       8361.1286       411.48844       21.395571       1
       8372.8638       441.70353       24.205706       1
       8384.5990       369.76268       19.530556       1
       8396.3341       355.91697       23.717645       1
       8408.0693       398.16887       19.368345       1
       8419.8045       407.52570       23.706507       1
       8431.5397       447.38121       19.169064       1
       8443.2748       390.48324       23.146058       1
       8455.0100       515.62555       19.147681       1
       8466.7452       407.13714       22.987811       1
       8478.4804       454.53444       18.750636       1
       8490.2156       428.83101       22.750276       1
       8501.9507       367.26029       18.286862       1
       8513.6859       449.93921       22.642335       1
       8525.4211       390.04234       18.308101       1
       8537.1563       420.34265       22.422761       1
       8548.8914       423.36929       18.145300       1
       8560.6266       401.87863       22.274011       1
       8572.3618       452.74062       18.161741       1
       8584.0970       449.29344       22.261175       1
       8595.8321       367.20739       17.853367       1
       8607.5673       360.28825       21.868928       1
       8619.3025       407.06150       17.922003       1
       8631.0377       428.77796       21.976261       1
       8642.7729       497.28119       18.034300       1
       8654.5080       376.87249       24.729926       1
       8666.2432       510.12336       18.021041       1
       8677.9784       406.85803       24.388203       1
       8689.7136       404.63436       17.484398       1
       8701.4487       472.82805       21.393454       1
       8713.1839       405.88098       17.136602       1
       8724.9191       343.02003       20.646131       1
       8736.6543       357.01545       16.755123       1
       8748.3894       387.46494       20.625322       1
       8760.1246       357.83423       16.490757       1
       8771.8598       378.60394       20.468760       1
       8783.5950       447.43355       16.791795       1
       8795.3302       384.02943       20.204806       1
       8807.0653       426.15115       16.406762       1
       8818.8005       435.96942       20.271539       1
       8830.5357       442.75851       16.180344       1
       8842.2709       371.49977       19.845179       1
       8854.0060       372.16473       15.941599       1
       8865.7412       425.08696       19.971454       1
       8877.4764       492.42520       19.922319       1
       8889.2116       399.74963       19.568615       1
       8900.9467       395.97387       16.025295       1
       8912.6819       427.25411       19.453667       1
       8924.4171       427.91635       15.926507       1
       8936.1523       401.44502       19.241364       1
       8947.8875       400.44813       19.179354       1
       8959.6226       384.31824       18.606175       1
       8971.3578       387.44972       15.542296       1
       8983.0930       414.43335       19.031636       1
       8994.8282       366.09021       15.318999       1
       9006.5633       481.49230       19.165334       1
       9018.2985       426.78459       15.482872       1
       9030.0337       426.91103       18.913706       1
       9041.7689       411.17525       15.426203       1
       9053.5040       465.35107       18.947302       1
       9065.2392       401.89736       15.219634       1
       9076.9744       375.96776       20.307561       1
       9088.7096       306.83693       15.814128       1
       9100.4447       285.03110       19.793128       1
       9112.1799       369.75993       15.710207       1
       9123.9151       401.93281       20.248209       1
       9135.6503       366.43153       15.745054       1
       9147.3855       422.15072       20.061527       1
       9159.1206       361.91484       15.662603       1
       9170.8558       330.59879       19.598074       1
       9182.5910       424.89076       15.647361       1
       9194.3262       359.00275       19.508813       1
       9206.0613       383.55814       15.409152       1
       9217.7965       316.50696       19.211174       1
       9229.5317       443.58514       15.554598       1
       9241.2669       521.92178       19.898411       1
       9253.0020       439.02765       15.415041       1
       9264.7372       407.35137       19.379616       1
       9276.4724       396.10796       15.193754       1
       9288.2076       333.51644       19.020268       1
       9299.9428       427.08706       15.251653       1
       9311.6779       315.56025       18.855031       1
       9323.4131       384.78045       15.046552       1
       9335.1483       381.47074       19.063347       1
       9346.8835       423.71186       15.020140       1
       9358.6186       315.35313       18.755456       1
       9370.3538       314.90609       14.699406       1
       9382.0890       384.66014       18.897907       1
       9393.8242       437.13885       14.986706       1
       9405.5593       430.75002       18.959349       1
       9417.2945       424.70341       14.805430       1
       9429.0297       411.72245       18.658264       1
       9440.7649       429.63563       14.808234       1
       9452.5001       449.88995       18.759892       1
       9464.2352       432.06212       14.667708       1
       9475.9704       420.41038       18.587241       1
       9487.7056       428.53846       14.720333       1
       9499.4408       424.00138       18.585779       1
       9511.1759       397.07092       14.556550       1
       9522.9111       452.79143       18.387170       1
       9534.6463       368.73007       14.342313       1
       9546.3815       408.67389       18.249509       1
       9558.1166       424.46475       14.424912       1
       9569.8518       420.42168       18.341675       1
       9581.5870       387.45596       14.334001       1
       9593.3222       445.46539       18.380895       1
       9605.0574       435.60794       14.412189       1
       9616.7925       358.71091       17.933317       1
       9628.5277       441.80951       14.338264       1
       9640.2629       506.29539       18.235211       1
       9651.9981       412.68801       14.230348       1
       9663.7332       397.01575       17.874990       1
       9675.4684       415.08491       14.199784       1
       9687.2036       375.25866       17.819710       1
       9698.9388       386.39114       13.918690       1
       9710.6739       529.43190       18.340152       1
       9722.4091       424.80485       13.964648       1
       9734.1443       444.19832       17.983753       1
       9745.8795       403.42578       13.928178       1
       9757.6146       412.83038       17.764468       1
       9769.3498       423.74476       13.990949       1
       9781.0850       408.29514       17.618736       1
       9792.8202       422.03994       13.926317       1
       9804.5554       456.75267       17.940862       1
       9816.2905       383.44962       13.810166       1
       9828.0257       397.17178       17.615652       1
       9839.7609       408.91141       13.813114       1
       9851.4961       354.54361       17.442724       1
       9863.2312       379.47911       16.536202       1
       9874.9664       356.65391       17.502087       1
       9886.7016       380.38329       13.694044       1
       9898.4368       368.94803       17.401188       1
       9910.1719       350.74884       13.583869       1
       9921.9071       472.84427       17.781217       1
       9933.6423       406.68437       13.711110       1
       9945.3775       373.07894       17.283609       1
       9957.1127       412.88227       13.666850       1
       9968.8478       455.97179       17.448515       1
       9980.5830       387.44451       13.498204       1
       9992.3182       403.29696       17.272332       1
       10004.053       384.45772       13.478693       1
       10015.789       369.28575       17.113150       1
       10027.524       361.48457       13.390739       1
       10039.259       435.41734       17.249508       1
       10050.994       415.11988       13.552410       1
       10062.729       412.24531       17.258038       1
       10074.464       444.94483       13.625115       1
       10086.200       294.79651       15.232335       1
       10097.935       372.23456       12.740940       1
       10109.670       319.57679       15.400310       1
       10121.405       380.58563       12.748959       1
       10133.140       348.15009       15.477144       1
       10144.875       347.05302       12.565165       1
       10156.611       365.57533       15.497308       1
       10168.346       361.30716       12.600420       1
       10180.081       320.27417       17.338971       1
       10191.816       400.77173       12.752802       1
       10203.551       384.28800       16.845729       1
       10215.287       355.60897       12.470855       1
       10227.022       311.42815       15.115558       1
       10238.757       416.24034       12.642679       1
       10250.492       356.22283       15.275592       1
       10262.227       400.10575       12.571966       1
       10273.962       305.69147       14.883477       1
       10285.698       392.48603       12.487153       1
       10297.433       386.27298       15.214067       1
       10309.168       373.75113       12.430575       1
       10320.903       309.01320       14.924190       1
       10332.638       388.43621       12.382990       1
       10344.373       359.02427       15.117717       1
       10356.109       361.98709       12.309792       1
       10367.844       358.96140       15.115188       1
       10379.579       356.04445       12.299205       1
       10391.314       372.35510       14.902569       1
       10403.049       338.23265       21.106718       1
       10414.785       357.50746       14.940709       1
       10426.520       396.19510       12.449905       1
       10438.255       342.44566       14.939037       1
       10449.990       408.31212       12.412472       1
       10461.725       321.62459       14.902778       1
       10473.460       396.83105       12.369218       1
       10485.196       315.76698       14.608666       1
       10496.931       384.64683       12.281892       1
       10508.666       347.75078       14.630655       1
       10520.401       340.31105       21.038428       1
       10532.136       391.05769       15.063956       1
       10543.871       386.50362       12.273277       1
       10555.607       385.36332       15.085613       1
       10567.342       429.05811       12.442507       1
       10579.077       361.39468       14.993115       1
       10590.812       392.93825       12.244740       1
       10602.547       263.40199       14.519916       1
       10614.283       356.20267       12.114496       1
       10626.018       353.94259       14.748448       1
       10637.753       364.35761       12.094078       1
       10649.488       342.21924       14.491164       1
       10661.223       373.41122       12.108265       1
       10672.958       339.37973       14.655071       1
       10684.694       382.46602       12.062658       1
       10696.429       357.61820       14.709732       1
       10708.164       366.20607       11.918276       1
       10719.899       338.06284       14.718467       1
       10731.634       349.62565       11.923129       1
       10743.369       344.71675       14.637790       1
       10755.105       390.68489       12.136454       1
       10766.840       326.18266       14.647727       1
       10778.575       392.49780       12.119095       1
       10790.310       389.67705       14.726795       1
       10802.045       385.88674       12.054522       1
       10813.781       380.69960       14.419745       1
       10825.516       405.26027       12.110576       1
       10837.251       374.75930       14.743406       1
       10848.986       339.09195       11.879837       1
       10860.721       397.67099       14.825763       1
       10872.456       385.00377       12.046777       1
       10884.192       382.69306       14.794837       1
       10895.927       354.52604       11.917075       1
       10907.662       378.68465       14.749541       1
       10919.397       410.47288       12.120533       1
       10931.132       371.68398       14.759071       1
       10942.868       360.06649       11.899331       1
       10954.603       395.05752       14.786118       1
       10966.338       403.99724       12.090940       1
       10978.073       388.78681       14.808742       1
       10989.808       380.00704       11.988513       1
       11001.543       399.15356       14.907014       1
       11013.279       367.05801       11.932288       1
       11025.014       349.89991       14.542099       1
       11036.749       359.02323       11.824587       1
       11048.484       360.21939       14.629617       1
       11060.219       340.53329       11.885619       1
       11071.954       366.58630       14.676569       1
       11083.690       353.26172       11.940261       1
       11095.425       407.20861       14.899387       1
       11107.160       358.22804       12.513721       1
       11118.895       258.81814       15.567205       1
       11130.630       363.90050       12.549006       1
       11142.366       327.72728       15.812807       1
       11154.101       351.40611       12.546841       1
       11165.836       283.94554       15.677820       1
       11177.571       343.39146       12.517058       1
       11189.306       331.15137       15.791920       1
       11201.041       370.82369       15.631364       0
       11212.777       307.40330       15.576357       0
       11224.512       322.95401       12.441977       0
       11236.247       317.97274       15.626811       0
       11247.982       359.99170       12.504244       0
       11259.717       328.45782       15.626527       0
       11271.452       323.15775       12.459587       0
       11283.188       278.62052       15.610264       0
       11294.923       353.65898       12.615238       0
       11306.658       312.27836       15.926121       0
       11318.393       346.94201       12.890528       0
       11330.128       344.41400       16.634140       0
       11341.864       331.02854       13.076725       0
       11353.599       370.25853       23.259240       0
       11365.334       381.28560       14.330464       0
       11377.069       404.83350       18.901014       0
       11388.804       365.39028       19.045290       0
       11400.539       396.89781       20.519828       0
       11412.275       311.35560       17.194992       0
       11424.010       418.50573       23.490755       0
       11435.745       396.06138       19.634260       0
       11447.480       261.66428       25.937247       0
       11459.215       320.22498       21.579311       0
       11470.950       233.10518       28.369347       0
       11482.686       525.68430       24.176890       0
       11494.421      -306.54253       0.0000000       0
       11506.156       527.63561       27.050620       0
       11517.891       240.41880       35.975627       0
       11529.626       256.81215       31.117361       0
       11541.362       102.16753       43.161709       0
       11553.097       539.68079       38.048108       0
       11564.832       533.57257       52.602755       0
       11576.567       475.74018       46.507867       0
       11588.302       1023.0468       66.064974       0
       11600.037       134.82831       56.021873       0
       11611.773      -1144.4422       78.131406       0
       11623.508       1610.2161       68.253440       0
       11635.243      -550.35092       95.989370       0
       11646.978       554.53761       106.19007       0
       11658.713      -59.242104       125.71748       0
       11670.448       983.84725       110.88655       0
       11682.184      -4833.7758       160.33443       0
