#WAVELENGTH FLUX ERROR MASK
       10233.427       1513.0429       137.40547       0
       10256.352       1342.5136       145.44182       0
       10279.278       660.68331       131.07203       0
       10302.203       1900.8393       127.01077       0
       10325.128      -118.05334       115.46366       0
       10348.054       959.99498       112.76221       0
       10370.979       716.05841       104.56537       0
       10393.905       321.41952       102.10018       0
       10416.830       779.75473       94.593857       0
       10439.755       43.166772       89.990199       0
       10462.681       597.15907       82.711008       0
       10485.606       278.64144       77.113433       0
       10508.531       190.91246       69.639744       0
       10531.457       367.46655       66.657021       0
       10554.382       491.32623       60.243634       0
       10577.307       304.99930       57.784437       0
       10600.233       542.09865       53.114552       0
       10623.158       380.52379       52.287021       0
       10646.084       221.05416       47.271272       0
       10669.009       151.28741       46.090101       0
       10691.934       70.388497       42.099652       0
       10714.860       146.67145       40.027084       0
       10737.785       116.18669       35.482668       0
       10760.710       153.57495       33.302853       0
       10783.636       70.455368       29.668032       0
       10806.561       126.01432       28.233098       0
       10829.487       68.603094       25.259609       0
       10852.412       118.69343       24.705533       0
       10875.337       124.31872       24.987721       0
       10898.263       92.906815       19.384264       0
       10921.188       155.65041       21.458770       0
       10944.113       98.178837       21.016207       0
       10967.039       136.40712       19.972629       0
       10989.964       64.190695       17.317913       0
       11012.890       88.012244       18.744933       1
       11035.815       116.47279       18.699752       1
       11058.740       100.79945       17.411698       1
       11081.666       115.05620       17.618340       1
       11104.591       109.83059       16.757239       1
       11127.516       96.058601       16.844540       1
       11150.442       100.50634       16.161164       1
       11173.367       89.769647       16.405769       1
       11196.292       107.25348       15.923486       1
       11219.218       118.77530       16.451162       1
       11242.143       121.59752       15.855397       1
       11265.069       91.454611       16.026992       1
       11287.994       69.188892       15.321480       1
       11310.919       101.47058       15.892501       1
       11333.845       104.26275       15.617574       1
       11356.770       105.27901       15.717410       1
       11379.695       119.74724       15.440576       1
       11402.621       101.44155       15.740850       1
       11425.546       101.46525       15.159499       1
       11448.472       133.23849       15.748506       1
       11471.397       85.350645       14.983802       1
       11494.322       98.386054       15.601355       1
       11517.248       94.139300       14.921686       1
       11540.173       107.31896       15.497114       1
       11563.098       91.182601       14.942169       1
       11586.024       114.76707       15.533559       1
       11608.949       66.105927       13.134676       1
       11631.875       106.98540       15.380012       1
       11654.800       95.158394       14.753872       1
       11677.725       108.89818       15.323666       1
       11700.651       92.803810       14.583874       1
       11723.576       115.32924       15.045486       1
       11746.501       108.22634       14.554955       1
       11769.427       105.03402       14.906449       1
       11792.352       124.67752       14.979065       1
       11815.277       118.67702       14.842077       1
       11838.203       121.79340       14.651298       1
       11861.128       110.28114       14.822670       1
       11884.054       111.99660       14.414142       1
       11906.979       141.39045       14.859785       1
       11929.904       117.29899       14.268322       1
       11952.830       125.93243       14.686124       1
       11975.755       123.85980       15.003131       1
       11998.680       108.74617       14.441675       1
       12021.606       117.81407       14.220289       1
       12044.531       117.56944       14.434870       1
       12067.457       128.47949       14.124352       1
       12090.382       116.84457       14.339572       1
       12113.307       115.73404       13.994595       1
       12136.233       112.75228       14.221468       1
       12159.158       109.18656       13.880837       1
       12182.083       118.88075       14.184379       1
       12205.009       116.15861       13.840497       1
       12227.934       109.31630       14.082043       1
       12250.860       118.73080       13.752872       1
       12273.785       107.79856       14.030338       1
       12296.710       107.59919       13.569868       1
       12319.636       121.91049       15.807456       1
       12342.561       127.61135       13.736121       1
       12365.486       116.29965       14.775178       1
       12388.412       109.04415       13.493332       1
       12411.337       129.80198       13.976971       1
       12434.262       100.65903       13.395229       1
       12457.188       107.52074       13.539683       1
       12480.113       105.09127       13.127087       1
       12503.039       106.95702       13.540538       1
       12525.964       98.836008       13.004924       1
       12548.889       110.39124       13.519901       1
       12571.815       100.00223       12.954331       1
       12594.740       107.68856       13.382891       1
       12617.665       103.06953       12.945468       1
       12640.591       100.32112       13.355695       1
       12663.516       112.97164       12.965085       1
       12686.442       94.485044       13.258374       1
       12709.367       99.599060       13.883774       1
       12732.292       113.26131       13.361124       1
       12755.218       121.28667       12.746393       1
       12778.143       98.563746       13.121026       1
       12801.068       98.719155       12.696081       1
       12823.994       102.49252       13.124902       1
       12846.919       113.33546       12.722106       1
       12869.845       112.83150       13.840980       1
       12892.770       109.22351       12.715726       1
       12915.695       120.92948       13.815520       1
       12938.621       106.95257       12.613141       1
       12961.546       107.64810       12.983048       1
       12984.471       109.13321       12.588749       1
       13007.397       106.97716       12.946243       1
       13030.322       115.04765       3974825.1       1
       13053.247       91.824835       11.484542       1
       13076.173       104.11506       13.213897       1
       13099.098       104.61698       12.822791       1
       13122.024       104.42188       13.399571       1
       13144.949       94.877764       12.721049       1
       13167.874       93.584976       12.430797       1
       13190.800       84.095395       12.597665       1
       13213.725       124.50269       4356805.9       1
       13236.650       107.65099       12.722998       1
       13259.576       98.994498       12.384437       1
       13282.501       99.552656       12.615304       1
       13305.427       98.344415       12.324452       1
       13328.352       83.383841       12.431740       1
       13351.277       85.291909       12.169107       1
       13374.203       93.812339       12.445355       1
       13397.128       87.877743       4299693.0       1
       13420.053       97.398380       12.392237       1
       13442.979       87.618856       12.116461       1
       13465.904       97.198912       12.710956       1
       13488.830       93.639509       4257796.0       1
       13511.755       92.039730       12.375000       1
       13534.680       81.194969       11.910338       1
       13557.606       83.105990       12.290530       1
       13580.531       70.224710       11.793278       1
       13603.456       81.856897       12.249205       1
       13626.382       91.852689       12.030112       1
       13649.307       91.899795       12.316619       1
       13672.232       84.973181       11.949656       1
       13695.158       86.207716       12.282333       1
       13718.083       88.624706       11.992560       1
       13741.009       98.720872       12.402459       1
       13763.934       89.241074       12.037212       1
       13786.859       81.240939       12.245194       1
       13809.785       89.455821       11.975444       1
       13832.710       101.08591       12.355104       1
       13855.635       91.388348       4235868.4       1
       13878.561       94.847676       12.290824       1
       13901.486       92.397820       11.914279       1
       13924.412       97.182306       12.385598       1
       13947.337       94.810792       11.964895       1
       13970.262       101.04985       12.346380       1
       13993.188       97.977546       11.952212       1
       14016.113       99.691689       12.244821       1
       14039.038       85.199809       11.800210       1
       14061.964       95.762643       12.222260       1
       14084.889       92.063201       11.798272       1
       14107.815       99.992407       12.196886       1
       14130.740       96.019246       11.843830       1
       14153.665       79.497619       11.946162       1
       14176.591       86.835964       11.675449       1
       14199.516       90.767007       12.002425       1
       14222.441       94.230636       11.718699       1
       14245.367       94.458246       12.083484       1
       14268.292       85.159007       11.613085       1
       14291.217       99.834685       12.027724       1
       14314.143       83.522657       11.554713       1
       14337.068       101.03230       12.041874       1
       14359.994       92.188853       11.632520       1
       14382.919       96.760670       11.908867       1
       14405.844       89.659916       11.574933       1
       14428.770       92.110418       11.960777       1
       14451.695       101.75958       11.639043       1
       14474.620       95.620191       11.916638       1
       14497.546       110.76520       11.606321       1
       14520.471       102.29708       11.844358       1
       14543.397       115.25804       11.647625       1
       14566.322       112.30479       11.998806       1
       14589.247       114.29425       11.647689       1
       14612.173       108.44781       11.947990       1
       14635.098       93.067575       11.362159       1
       14658.023       101.01617       11.840102       1
       14680.949       104.40297       11.471307       1
       14703.874       97.368007       11.842413       1
       14726.799       97.116304       11.504846       1
       14749.725       107.86833       11.939280       1
       14772.650       82.575984       11.315058       1
       14795.576       105.03479       11.922271       1
       14818.501       91.978583       11.427397       1
       14841.426       106.23325       11.874261       1
       14864.352       90.164495       11.350912       1
       14887.277       106.58158       11.872819       1
       14910.202       95.022274       11.339852       1
       14933.128       96.893758       11.700599       1
       14956.053       100.81917       11.411239       1
       14978.979       97.740817       11.647488       1
       15001.904       94.642369       11.274935       1
       15024.829       92.624585       11.592463       1
       15047.755       97.062773       11.334050       1
       15070.680       103.02470       11.714566       1
       15093.605       96.854877       11.272418       1
       15116.531       99.088100       11.618671       1
       15139.456       100.53982       11.252431       1
       15162.382       102.02181       11.878446       1
       15185.307       102.37203       11.591928       1
       15208.232       94.673021       11.758928       1
       15231.158       97.749706       11.567346       1
       15254.083       127.53629       12.021471       1
       15277.008       85.327781       11.326496       1
       15299.934       89.864842       11.631550       1
       15322.859       96.786286       11.489148       1
       15345.784       95.413761       11.698938       1
       15368.710       91.783775       11.406714       1
       15391.635       87.071890       11.608497       1
       15414.561       92.024743       11.420366       1
       15437.486       101.96127       11.719776       1
       15460.411       91.363621       11.376329       1
       15483.337       94.942506       11.627754       1
       15506.262       92.075014       11.372428       1
       15529.187       86.433913       11.612195       1
       15552.113       96.154216       11.448115       1
       15575.038       96.320070       11.659192       1
       15597.964       97.616587       11.457615       1
       15620.889       94.097604       11.643075       1
       15643.814       90.930420       11.356276       1
       15666.740       96.185786       11.607964       1
       15689.665       97.271757       11.407835       1
       15712.590       121.79812       11.858981       1
       15735.516       93.450845       11.266481       1
       15758.441       90.873338       11.451578       1
       15781.367       97.225149       11.317867       1
       15804.292       82.566306       10.425836       1
       15827.217       94.229872       11.256518       1
       15850.143       95.812604       11.371473       1
       15873.068       91.730153       11.072693       1
       15895.993       43.349071       8.3133477       1
       15918.919       82.790082       10.977258       1
       15941.844       40.597183       8.2934271       1
       15964.769       90.676513       11.078643       1
       15987.695       33.772819       8.2157539       1
       16010.620       62.266109       9.3805300       1
       16033.546       39.069483       8.2656322       1
       16056.471       43.453924       7.2617039       1
       16079.396       45.341659       8.3095618       1
       16102.322       57.421120       7.4753704       1
       16125.247       42.128858       8.2431716       1
       16148.172       53.728844       7.4611455       1
       16171.098       12.322948       5.6706506       1
       16194.023       48.020635       7.3652787       1
       16216.949       36.191636       8.2031080       1
       16239.874       57.491503       7.5403612       1
       16262.799       49.442595       8.3996163       1
       16285.725       46.050766       7.4146352       1
       16308.650       41.669278       8.1628293       1
       16331.575       49.577264       7.4720963       1
       16354.501     -0.42387468       0.0000000       1
       16377.426     -0.41598109       0.0000000       1
       16400.352     -0.40975193       0.0000000       1
       16423.277     -0.40517586       0.0000000       1
       16446.202     -0.40199205       0.0000000       1
       16469.128     -0.40085517       0.0000000       1
       16492.053     -0.40190167       0.0000000       1
       16514.978     -0.40570722       0.0000000       1
       16537.904     -0.41299375       0.0000000       1
       16560.829     -0.42457522       0.0000000       1
       16583.754     -0.44160558       0.0000000       1
       16606.680     -0.46462244       0.0000000       1
       16629.605     -0.49492150       0.0000000       1
       16652.531     -0.53346011       0.0000000       1
       16675.456     -0.58188864       0.0000000       1
       16698.381     -0.64203287       0.0000000       1
       16721.307     -0.71565738       0.0000000       1
       16744.232     -0.80636815       0.0000000       1
       16767.157     -0.91695343       0.0000000       0
       16790.083      -1.0521544       0.0000000       0
       16813.008      -1.2112555       0.0000000       0
       16835.934      -1.3975966       0.0000000       0
       16858.859      -1.6045737       0.0000000       0
       16881.784      -1.8328619       0.0000000       0
       16904.710      -2.0762724       0.0000000       0
       16927.635      -2.3337805       0.0000000       0
       16950.560      -2.6190019       0.0000000       0
       16973.486      -2.9279439       0.0000000       0
       16996.411      -3.2770206       0.0000000       0
       17019.337      -3.6614112       0.0000000       0
       17042.262      -4.0936647       0.0000000       0
       17065.187      -4.5675857       0.0000000       0
       17088.113      -5.0712002       0.0000000       0
       17111.038      -5.6124677       0.0000000       0
       17133.963      -6.2530179       0.0000000       0
       17156.889      -7.0155535       0.0000000       0
       17179.814      -7.9953761       0.0000000       0
       17202.739      -8.7643406       0.0000000       0
       17225.665      -10.096103       0.0000000       0
       17248.590      -11.610365       0.0000000       0
       17271.516      -13.189754       0.0000000       0
       17294.441      -14.816546       0.0000000       0
       17317.366      -16.581188       0.0000000       0
       17340.292      -18.378098       0.0000000       0
       17363.217      -20.261358       0.0000000       0
