#WAVELENGTH FLUX ERROR MASK
       7469.2552       8330.6668       363.35374       0
       7480.9904      -15485.782       422.19320       0
       7492.7255      -12517.498       331.30733       0
       7504.4607       7177.5399       375.59874       0
       7516.1959      -1145.3092       280.54342       0
       7527.9311       377.87853       226.75588       0
       7539.6662      -4920.6060       238.47934       0
       7551.4014       13501.808   1.5588968e+08       0
       7563.1366       955.64079       191.71147       0
       7574.8718      -2673.7718       209.40860       0
       7586.6069      -4423.7677       152.50118       0
       7598.3421       2726.8573       173.62770       0
       7610.0773       1458.5454       129.65839       0
       7621.8125      -999.24844       146.79391       0
       7633.5477      -95.609610       110.88651       0
       7645.2828       1511.0683       127.98190       0
       7657.0180      -136.90031       96.059126       0
       7668.7532       114.56219       108.70434       0
       7680.4884       732.23779       81.503579       0
       7692.2235      -215.20324       91.658344       0
       7703.9587       719.15220       68.962711       0
       7715.6939       51.882844       78.660887       0
       7727.4291       781.42439       60.414834       0
       7739.1642       639.55637       70.508132       0
       7750.8994       287.38006       54.557153       0
       7762.6346       467.52958       64.844503       0
       7774.3698      -170.70827       70.907787       0
       7786.1050       51.162800       42.162925       0
       7797.8401       628.85833       46.681693       0
       7809.5753       236.65053       54.235498       0
       7821.3105       597.04141       42.405072       0
       7833.0457       568.97600       49.367328       0
       7844.7808       431.41843       38.053392       0
       7856.5160       525.58911       44.909258       0
       7868.2512       271.31538       34.532212       0
       7879.9864       341.18046       40.994034       0
       7891.7215       374.12980       32.141553       0
       7903.4567       329.00649       38.372470       0
       7915.1919       187.42914       30.082553       0
       7926.9271       394.29118       36.494378       0
       7938.6622       361.27009       29.013842       0
       7950.3974       303.63973       34.667696       0
       7962.1326       372.57340       27.820242       0
       7973.8678       389.10117       33.537962       0
       7985.6030       285.01561       26.608651       0
       7997.3381       209.18263       31.952155       0
       8009.0733       450.26777       26.134820       0
       8020.8085       386.14647       31.380599       0
       8032.5437       233.53136       25.163828       0
       8044.2788       400.07476       30.872123       0
       8056.0140       343.41023       26.597358       0
       8067.7492       508.13369       33.805332       0
       8079.4844       308.17863       26.101445       0
       8091.2195       268.39298       32.724979       0
       8102.9547       201.68870       25.457357       0
       8114.6899       265.55385       31.920884       0
       8126.4251       215.85400       24.961187       0
       8138.1603       403.49596       31.999292       0
       8149.8954       253.94566       24.779139       0
       8161.6306       317.43674       31.356380       1
       8173.3658       380.22123       24.613016       1
       8185.1010       434.65159       31.099750       1
       8196.8361       315.88004       23.964018       1
       8208.5713       282.65974       30.079141       1
       8220.3065       317.75825       23.604678       1
       8232.0417       233.72183       29.428910       1
       8243.7768       276.46897       25.498098       1
       8255.5120       353.48858       28.974647       1
       8267.2472       238.16101       26.821113       1
       8278.9824       369.83351       28.342760       1
       8290.7176       387.76216       21.962568       1
       8302.4527       300.42179       27.793145       1
       8314.1879       315.92689       21.357423       1
       8325.9231       208.27799       27.051576       1
       8337.6583       314.09581       21.173013       1
       8349.3934       272.68722       26.972800       1
       8361.1286       326.62759       21.041020       1
       8372.8638       325.20885       26.316031       1
       8384.5990       332.05083       20.663900       1
       8396.3341       185.67074       25.846154       1
       8408.0693       339.61162       22.718215       1
       8419.8045       488.53802       26.150475       1
       8431.5397       335.81833       20.192562       1
       8443.2748       322.64306       25.412097       1
       8455.0100       344.14240       19.837750       1
       8466.7452       278.27996       24.963539       1
       8478.4804       309.83069       19.588746       1
       8490.2156       303.82887       24.827601       1
       8501.9507       305.86828       19.409202       1
       8513.6859       344.29026       24.594598       1
       8525.4211       290.62549       19.167770       1
       8537.1563       355.78783       24.311320       1
       8548.8914       357.15815       19.122201       1
       8560.6266       330.53256       24.300124       1
       8572.3618       345.51917       18.918654       1
       8584.0970       325.60715       24.077387       1
       8595.8321       322.25051       18.711189       1
       8607.5673       345.50594       24.095585       1
       8619.3025       379.93805       20.913619       1
       8631.0377       360.24544       24.015789       1
       8642.7729       367.19764       21.005202       1
       8654.5080       294.41435       23.611135       1
       8666.2432       387.41161       18.779120       1
       8677.9784       357.82609       23.465359       1
       8689.7136       363.86111       18.438019       1
       8701.4487       338.83873       23.186535       1
       8713.1839       390.35249       20.229126       1
       8724.9191       313.82456       22.777542       1
       8736.6543       378.34389       17.917965       1
       8748.3894       257.43380       22.417495       1
       8760.1246       415.84506       17.850134       1
       8771.8598       239.58655       16.047744       1
       8783.5950       361.52946       17.583736       1
       8795.3302       229.98875       21.872878       1
       8807.0653       316.67550       17.319782       1
       8818.8005       294.56868       21.817828       1
       8830.5357       364.69969       17.262819       1
       8842.2709       358.44794       21.854239       1
       8854.0060       338.52967       17.094043       1
       8865.7412       310.73380       21.553400       1
       8877.4764       307.02027       16.800937       1
       8889.2116       310.49084       21.373525       1
       8900.9467       377.98188       16.857520       1
       8912.6819       386.93612       21.478701       1
       8924.4171       312.65710       16.656074       1
       8936.1523       315.18612       21.000443       1
       8947.8875       350.68049       16.453043       1
       8959.6226       276.16760       20.771563       1
       8971.3578       332.76706       16.339128       1
       8983.0930       371.83845       20.778766       1
       8994.8282       320.32485       16.134890       1
       9006.5633       343.03503       20.514795       1
       9018.2985       300.62053       16.053040       1
       9030.0337       354.53085       20.548089       1
       9041.7689       320.19580       15.811545       1
       9053.5040       343.73182       20.444826       1
       9065.2392       317.29071       15.891654       1
       9076.9744       349.14000       18.507601       1
       9088.7096       328.23334       14.978695       1
       9100.4447       328.65111       18.228070       1
       9112.1799       362.27939       14.907181       1
       9123.9151       331.18689       18.036203       1
       9135.6503       353.36833       14.766673       1
       9147.3855       322.01270       17.968378       1
       9159.1206       354.84507       14.647143       1
       9170.8558       292.75675       17.688162       1
       9182.5910       364.31140       14.460092       1
       9194.3262       295.15896       17.535355       1
       9206.0613       329.86503       14.383299       1
       9217.7965       325.08157       17.537295       1
       9229.5317       354.42158       14.333610       1
       9241.2669       311.18365       17.365261       1
       9253.0020       337.37377       14.172044       1
       9264.7372       337.77261       17.385057       1
       9276.4724       369.57384       14.259358       1
       9288.2076       321.26081       17.322482       1
       9299.9428       349.75921       14.165102       1
       9311.6779       289.66712       17.094671       1
       9323.4131       312.91678       13.889439       1
       9335.1483       285.40811       16.950872       1
       9346.8835       301.76272       13.909021       1
       9358.6186       312.84227       17.054341       1
       9370.3538       286.57715       13.781356       1
       9382.0890       303.42810       16.954483       1
       9393.8242       336.39106       13.797298       1
       9405.5593       334.55939       16.885048       1
       9417.2945       315.42084       13.678470       1
       9429.0297       365.26036       16.832779       1
       9440.7649       340.02443       13.686212       1
       9452.5001       311.65946       16.495910       1
       9464.2352       325.24900       13.664902       1
       9475.9704       354.97962       16.359137       1
       9487.7056       342.03731       13.793070       1
       9499.4408       320.49552       16.153933       1
       9511.1759       305.12775       19.159898       1
       9522.9111       274.71162       16.225834       1
       9534.6463       344.69479       13.529587       1
       9546.3815       307.38802       16.383609       1
       9558.1166       338.50016       13.385201       1
       9569.8518       350.26868       16.327539       1
       9581.5870       347.75916       13.415670       1
       9593.3222       386.04656       16.505220       1
       9605.0574       344.61666       13.325127       1
       9616.7925       332.34175       16.216064       1
       9628.5277       368.77907       13.317292       1
       9640.2629       363.25359       16.298663       1
       9651.9981       369.91942       13.362538       1
       9663.7332       145.70221       11.303968       1
       9675.4684       352.58215       13.256975       1
       9687.2036       372.88675       16.280023       1
       9698.9388       338.92913       13.087099       1
       9710.6739       345.67019       16.120290       1
       9722.4091       302.53325       12.947134       1
       9734.1443       340.41039       15.993824       1
       9745.8795       330.72513       13.004590       1
       9757.6146       326.41423       15.960368       1
       9769.3498       320.24698       12.934101       1
       9781.0850       329.37620       15.852848       1
       9792.8202       320.83038       12.888582       1
       9804.5554       327.69318       15.900349       1
       9816.2905       308.85271       12.829695       1
       9828.0257       368.25212       16.004074       1
       9839.7609       302.15934       12.777893       1
       9851.4961       312.68598       15.740300       1
       9863.2312       348.92672       12.911301       1
       9874.9664       296.52788       15.664904       1
       9886.7016       322.14818       12.855688       1
       9898.4368       145.00822       11.082480       1
       9910.1719       307.59572       12.754988       1
       9921.9071       358.08676       15.865303       1
       9933.6423       311.77383       12.751645       1
       9945.3775       329.52303       15.586178       1
       9957.1127       321.95820       12.680537       1
       9968.8478       308.12566       15.536735       1
       9980.5830       334.62535       12.673487       1
       9992.3182       277.39669       15.241073       1
       10004.053       304.19726       12.438745       1
       10015.789       290.04543       15.132086       1
       10027.524       329.27328       12.517735       1
       10039.259       284.12153       15.204615       1
       10050.994       309.70848       12.446195       1
       10062.729       298.81579       15.265891       1
       10074.464       345.64814       12.597280       1
       10086.200       313.51900       16.912209       1
       10097.935       333.65318       13.250730       1
       10109.670       324.27287       16.893455       1
       10121.405       323.65552       13.239501       1
       10133.140       338.07570       16.912350       1
       10144.875       306.96649       13.125340       1
       10156.611       282.23639       16.471798       1
       10168.346       328.49485       13.170357       1
       10180.081       316.01759       16.682001       1
       10191.816       309.17546       13.061119       1
       10203.551       335.89996       21.422777       1
       10215.287       342.02141       13.029767       1
       10227.022       275.42098       20.949154       1
       10238.757       319.72853       12.952077       1
       10250.492       294.56145       16.404972       1
       10262.227       308.20176       12.910304       1
       10273.962       316.84634       16.393362       1
       10285.698       287.00026       12.690660       1
       10297.433       302.20244       16.251402       1
       10309.168       316.39224       12.842671       1
       10320.903       333.76444       16.302501       1
       10332.638       326.24041       12.860226       1
       10344.373       257.55629       16.078981       1
       10356.109       343.18798       12.824212       1
       10367.844       317.00884       16.257890       1
       10379.579       376.19310       12.985880       1
       10391.314       317.78448       16.294259       1
       10403.049       306.55855       12.763326       1
       10414.785       298.61766       16.061157       1
       10426.520       322.55923       12.777056       1
       10438.255       310.22894       16.117096       1
       10449.990       311.40016       12.601542       1
       10461.725       301.52281       16.180770       1
       10473.460       319.09985       14.382059       1
       10485.196       307.58877       16.208265       1
       10496.931       312.57856       12.795951       1
       10508.666       317.21453       16.257054       1
       10520.401       323.82458       12.788203       1
       10532.136       290.56720       16.147961       1
       10543.871       291.73353       12.689754       1
       10555.607       305.45671       16.080451       1
       10567.342       307.89263       12.697286       1
       10579.077       311.16087       16.096935       1
       10590.812       315.51014       12.672516       1
       10602.547       301.61034       16.008954       1
       10614.283       323.37648       12.677620       1
       10626.018       274.61320       15.752781       1
       10637.753       343.77679       12.698783       1
       10649.488       305.64698       15.895758       1
       10661.223       299.16327       12.542656       1
       10672.958       320.51474       16.043635       1
       10684.694       294.26570       12.498658       1
       10696.429       316.50303       15.988350       1
       10708.164       292.38990       18.002575       1
       10719.899       319.74722       15.809190       1
       10731.634       332.23157       12.576951       1
       10743.369       292.38289       15.666453       1
       10755.105       292.63589       12.401797       1
       10766.840       301.65815       15.900633       1
       10778.575       315.77906       12.503759       1
       10790.310       325.20940       15.935984       1
       10802.045       297.14952       12.469738       1
       10813.781       302.89126       15.602432       1
       10825.516       272.28629       12.243578       1
       10837.251       294.28708       15.703337       1
       10848.986       305.80923       12.350081       1
       10860.721       320.58755       15.796009       1
       10872.456       287.15564       12.267794       1
       10884.192       282.22120       15.648197       1
       10895.927       322.80476       12.373910       1
       10907.662       254.78478       15.566460       1
       10919.397       314.43485       13.921727       1
       10931.132       278.99670       15.663720       1
       10942.868       333.47646       15.344888       1
       10954.603       326.84852       15.841143       1
       10966.338       319.86151       14.022516       1
       10978.073       313.00690       15.645709       1
       10989.808       334.90971       13.997867       1
       11001.543       296.04538       15.734438       1
       11013.279       318.18789       12.412789       1
       11025.014       302.11134       15.678266       1
       11036.749       352.28258       12.318310       1
       11048.484       307.07404       15.763248       1
       11060.219       302.67487       12.322675       1
       11071.954       328.87297       15.203834       1
       11083.690       306.52982       13.637515       1
       11095.425       339.47408       15.639461       1
       11107.160       303.37877       11.663243       1
       11118.895       284.03888       14.327040       1
       11130.630       307.77568       11.717651       1
       11142.366       297.49240       14.337376       1
       11154.101       301.85215       11.534769       1
       11165.836       269.11421       14.188669       1
       11177.571       295.89425       11.689103       1
       11189.306       264.94986       14.192537       1
       11201.041       272.70570       12.942948       0
       11212.777       286.79567       14.242992       0
       11224.512       282.60032       11.606685       0
       11236.247       290.28336       14.341473       0
       11247.982       287.25386       11.547661       0
       11259.717       299.66333       14.267495       0
       11271.452       288.90880       11.609480       0
       11283.188       258.58152       14.233119       0
       11294.923       272.98572       11.692718       0
       11306.658       286.58181       14.084567       0
       11318.393       288.07766       12.015258       0
       11330.128       267.90517       14.872440       0
       11341.864       302.34766       12.537702       0
       11353.599       285.82052       15.757323       0
       11365.334       279.14557       13.278459       0
       11377.069       273.08990       16.960343       0
       11388.804       283.39404       14.528147       0
       11400.539       269.25275       18.707295       0
       11412.275       279.43100       16.215143       0
       11424.010       259.14326       21.110236       0
       11435.745       307.87224       18.185263       0
       11447.480       275.48875       23.542751       0
       11459.215       281.73959       19.926906       0
       11470.950       197.12959       25.651846       0
       11482.686       282.33077       21.771307       0
       11494.421       385.14129       28.914063       0
       11506.156       127.48031       24.541749       0
       11517.891       294.60707       32.945181       0
       11529.626       226.67826       29.012727       0
       11541.362       358.96513       39.180576       0
       11553.097       138.92975       35.026803       0
       11564.832       533.51563       48.241271       0
       11576.567       46.026957       42.647856       0
       11588.302       365.95440       58.798193       0
       11600.037      -102.72130       51.366489       0
       11611.773       56.548178       70.029243       0
       11623.508      -122.08831       63.227586       0
       11635.243       495.90322       85.879162       0
       11646.978      -455.46926       79.678155       0
       11658.713       227.83885       112.34099       0
       11670.448       1681.7422       116.79837       0
       11682.184       2217.9484       146.77834       0
