#WAVELENGTH FLUX ERROR MASK
       10170.848      -14.128254       199.44971       0
       10193.128       4495.3841       195.13246       0
       10215.409      -1348.8935       180.57895       0
       10237.689      -2541.5525       166.92570       0
       10259.970       1698.1743       158.50661       0
       10282.250       831.58230       146.01761       0
       10304.531       29.044557       137.40362       0
       10326.811      -1260.3453       127.08422       0
       10349.092       839.16019       122.96917       0
       10371.373       963.80675       118.41771       0
       10393.653       1226.8420       114.05672       0
       10415.934      -159.45057       106.91383       0
       10438.214       361.49181       101.76238       0
       10460.495       644.26847       95.069369       0
       10482.775      -90.334799       86.606127       0
       10505.056       237.92888       80.455840       0
       10527.336       443.12384       74.515200       0
       10549.617       404.23138       69.185581       0
       10571.897       226.36504       65.245478       0
       10594.178       604.42820       61.992675       0
       10616.458       482.13843       58.516028       0
       10638.739       724.24144       56.124626       0
       10661.019       555.05573       53.226519       0
       10683.300       295.82441       49.557239       0
       10705.581       344.46349       46.239950       0
       10727.861       320.62264       42.394561       0
       10750.142       357.25976       39.348390       0
       10772.422       258.42808       35.496617       0
       10794.703       333.43235       33.414888       0
       10816.983       359.07010       30.707215       0
       10839.264       303.64445       29.124280       0
       10861.544       312.13131       27.681025       0
       10883.825       287.87288       26.610563       0
       10906.105       308.32185       25.625021       0
       10928.386       295.95480       24.819211       0
       10950.666       256.33790       23.893483       0
       10972.947       296.36045       23.505746       0
       10995.227       301.18241       22.785828       0
       11017.508       269.62517       22.064833       1
       11039.789       356.52568       21.820203       1
       11062.069       301.39034       21.022981       1
       11084.350       314.60878       20.615732       1
       11106.630       335.13431       20.314323       1
       11128.911       346.57296       20.247417       1
       11151.191       314.90334       19.817294       1
       11173.472       301.90525       19.489647       1
       11195.752       290.02054       19.304647       1
       11218.033       312.23087       19.411801       1
       11240.313       277.94358       18.941072       1
       11262.594       310.37125       19.137091       1
       11284.874       121.64608       13.090405       1
       11307.155       293.24972       18.861383       1
       11329.435       267.88426       18.636672       1
       11351.716       272.78972       18.685101       1
       11373.997       265.78035       18.504415       1
       11396.277       288.52059       18.588307       1
       11418.558       283.31246       18.582936       1
       11440.838       274.95202       18.442540       1
       11463.119       272.75810       18.426673       1
       11485.399       279.82092       18.282014       1
       11507.680       298.42518       18.559218       1
       11529.960       257.63106       18.104452       1
       11552.241       323.64891       18.579483       1
       11574.521       269.37537       18.118194       1
       11596.802       291.54733       18.377607       1
       11619.082       329.92475       18.313643       1
       11641.363       265.57600       18.083178       1
       11663.643       298.80140       18.084183       1
       11685.924       301.58006       18.143931       1
       11708.205       268.50368       17.757818       1
       11730.485       320.78599       18.092306       1
       11752.766       292.95074       17.815610       1
       11775.046       303.08749       17.715937       1
       11797.327       320.86454       17.840564       1
       11819.607       303.35704       17.637321       1
       11841.888       310.12295       17.530419       1
       11864.168       297.17278       17.450841       1
       11886.449       321.96937       17.684857       1
       11908.729       295.36517       17.416775       1
       11931.010       302.76648       17.294139       1
       11953.290       298.14356       17.333703       1
       11975.571       311.49912       17.367710       1
       11997.851       266.41821       16.951820       1
       12020.132       318.19597       17.250949       1
       12042.413       296.57501       17.076861       1
       12064.693       304.20546       16.908180       1
       12086.974       304.80788       16.878305       1
       12109.254       281.78325       16.768435       1
       12131.535       279.90823       16.007753       1
       12153.815       275.46350       16.823577       1
       12176.096       301.62894       16.092159       1
       12198.376       318.67432       17.173376       1
       12220.657       279.50242       15.827334       1
       12242.937       290.75121       16.843424       1
       12265.218       123.37849       11.070948       1
       12287.498       307.24356       16.983061       1
       12309.779       312.39468       16.012908       1
       12332.059       290.68286       16.966520       1
       12354.340       317.91068       16.350597       1
       12376.621       326.38815       17.978894       1
       12398.901       720.01745       20.141511       1
       12421.182       749.91720       24.148896       1
       12443.462       2080.9010       30.573781       1
       12465.743       2567.4789       35.768305       1
       12488.023       2041.1267       32.210054       1
       12510.304       1333.0145       28.765900       1
       12532.584       708.46405       23.614582       1
       12554.865       736.85629       23.147247       1
       12577.145       490.30108       19.006094       1
       12599.426       365.40522       17.816686       1
       12621.706       286.90667       15.436256       1
       12643.987       321.81616       16.954457       1
       12666.267       286.43294       15.553101       1
       12688.548       261.90683       16.229490       1
       12710.829       279.38272       15.426324       1
       12733.109       267.09780       16.143444       1
       12755.390       269.91877       15.202198       1
       12777.670       270.46779       16.075439       1
       12799.951       287.88490       15.345532       1
       12822.231       269.49665       16.033182       1
       12844.512       281.89638       15.162763       1
       12866.792       111.12206       11.116492       1
       12889.073       266.77709       14.969490       1
       12911.353       296.28581       16.129265       1
       12933.634       299.31115       15.217377       1
       12955.914       269.96285       15.867633       1
       12978.195       278.02757       14.954105       1
       13000.475       276.66085       15.744599       1
       13022.756       287.63287       14.905497       1
       13045.037       294.33157       15.955504       1
       13067.317       271.93436       14.673277       1
       13089.598       275.75258       15.713416       1
       13111.878       297.32152       14.910328       1
       13134.159       270.93377       15.613829       1
       13156.439       259.49627       14.607453       1
       13178.720       268.85274       15.605287       1
       13201.000       273.74988       14.632625       1
       13223.281       271.53738       15.451210       1
       13245.561       277.64988       14.672818       1
       13267.842       260.67573       15.351811       1
       13290.122       277.64194       14.411871       1
       13312.403       270.34650       15.359134       1
       13334.683       254.95667       14.341118       1
       13356.964       269.98262       15.376453       1
       13379.245       250.62731       14.306303       1
       13401.525       267.31745       15.087208       1
       13423.806       284.59868       14.546792       1
       13446.086       269.71662       15.245836       1
       13468.367       250.12268       14.222378       1
       13490.647       257.84570       15.179416       1
       13512.928       229.90207       14.053383       1
       13535.208       262.57576       15.104182       1
       13557.489       250.53743       14.196285       1
       13579.769       230.64785       14.827307       1
       13602.050       265.91025       14.301847       1
       13624.330       243.45968       14.985864       1
       13646.611       255.27660       14.209507       1
       13668.891       256.78655       15.045329       1
       13691.172       249.13477       14.159986       1
       13713.453       263.67188       15.141024       1
       13735.733       232.29606       14.006216       1
       13758.014       231.23294       14.869493       1
       13780.294       237.69492       14.088933       1
       13802.575       133.57243       10.736335       1
       13824.855       262.28191       14.198884       1
       13847.136       243.98139       14.946338       1
       13869.416       261.80058       13.920813       1
       13891.697       247.75947       14.966513       1
       13913.977       244.88431       13.956980       1
       13936.258       268.40665       15.020781       1
       13958.538       278.74988       14.348189       1
       13980.819       253.90374       14.965537       1
       14003.099       267.67628       14.020744       1
       14025.380       259.58012       15.012354       1
       14047.661       249.59346       13.926164       1
       14069.941       283.75498       14.998792       1
       14092.222       245.72763       13.882094       1
       14114.502       277.68282       14.785049       1
       14136.783       262.78075       13.857539       1
       14159.063       259.81292       14.905358       1
       14181.344       260.24639       13.998882       1
       14203.624       265.68944       14.798335       1
       14225.905       247.39711       13.927039       1
       14248.185       252.19821       14.745176       1
       14270.466       254.35166       13.903139       1
       14292.746       258.93957       14.826269       1
       14315.027       264.56197       13.977751       1
       14337.307       271.08543       14.801317       1
       14359.588       253.04066       13.837081       1
       14381.869       265.26797       14.818154       1
       14404.149       93.522874       9.4648017       1
       14426.430       268.14646       14.792391       1
       14448.710       280.65839       14.046509       1
       14470.991       258.13817       14.492217       1
       14493.271       244.73623       13.810466       1
       14515.552       241.88501       14.509219       1
       14537.832       237.45070       13.779409       1
       14560.113       254.01824       14.684400       1
       14582.393       237.30153       13.698027       1
       14604.674       266.11440       14.827011       1
       14626.954       245.26835       13.839747       1
       14649.235       256.60504       14.718768       1
       14671.515       317.46840       14.364951       1
       14693.796       246.19836       14.620846       1
       14716.077       241.81075       13.773573       1
       14738.357       240.88359       14.616687       1
       14760.638       247.32744       13.898630       1
       14782.918       217.32578       14.400485       1
       14805.199       231.36256       13.697294       1
       14827.479       244.98378       14.595435       1
       14849.760       234.76513       13.626909       1
       14872.040       225.26937       14.418035       1
       14894.321       229.26424       13.636141       1
       14916.601       231.73070       14.311129       1
       14938.882       222.00348       13.451086       1
       14961.162       248.76986       14.512143       1
       14983.443       231.44603       13.467314       1
       15005.723       228.17009       14.386665       1
       15028.004       230.49781       13.553181       1
       15050.285       241.69678       14.516606       1
       15072.565       222.71824       13.480129       1
       15094.846       247.57774       14.406539       1
       15117.126       213.36986       13.416693       1
       15139.407       85.581534       9.9221616       1
       15161.687       241.87515       14.364438       1
       15183.968       221.17707       14.086339       1
       15206.248       260.13395       14.585235       1
       15228.529       220.76161       14.161437       1
       15250.809       231.59134       14.354489       1
       15273.090       227.67162       14.270390       1
       15295.370       240.62465       14.418012       1
       15317.651       213.37566       14.187824       1
       15339.931       213.50776       14.204862       1
       15362.212       216.16313       14.138562       1
       15384.493       220.09572       14.320395       1
       15406.773       217.91435       14.212218       1
       15429.054       203.45261       14.098812       1
       15451.334       226.35756       14.323863       1
       15473.615       257.20884       14.589051       1
       15495.895       126.69267       10.454342       1
       15518.176       235.66629       14.275233       1
       15540.456       237.50294       14.361248       1
       15562.737       207.26247       14.062832       1
       15585.017       223.87834       14.212025       1
       15607.298       228.45231       14.377460       1
       15629.578       219.15208       14.181509       1
       15651.859       246.27793       14.457136       1
       15674.139       246.07102       14.404561       1
       15696.420       245.69212       14.460612       1
       15718.701       247.17278       14.412150       1
       15740.981       89.252096       9.9387896       1
       15763.262       232.36953       14.306417       1
       15785.542       256.59779       14.417725       1
       15807.823       243.22270       14.404660       1
       15830.103       245.91671       14.406822       1
       15852.384       239.17647       14.346976       1
       15874.664       258.93009       14.606578       1
       15896.945       247.07781       14.420315       1
       15919.225       238.50739       14.375449       1
       15941.506       236.73760       14.363663       1
       15963.786       249.17662       14.509567       1
       15986.067       237.35918       14.355116       1
       16008.347       235.09769       14.428350       1
       16030.628       228.27650       14.385522       1
       16052.909       229.12771       14.443960       1
       16075.189       248.50425       14.548749       1
       16097.470       246.15912       14.586992       1
       16119.750       230.85796       14.337662       1
       16142.031       240.28932       14.506928       1
       16164.311       241.85699       14.552536       1
       16186.592       227.31611       14.507816       1
       16208.872       232.15820       14.410578       1
       16231.153       220.79049       14.465339       1
       16253.433       243.53416       14.622600       1
       16275.714       232.26897       14.449914       1
       16297.994       234.25456       14.646389       1
       16320.275       239.10627       14.709947       1
       16342.555       226.56977       14.643628       1
       16364.836       222.64905       14.475918       1
       16387.117       224.87834       14.643118       1
       16409.397       216.47469       14.412016       1
       16431.678       239.09691       14.870112       1
       16453.958       232.40067       14.820062       1
       16476.239       227.53074       14.873298       1
       16498.519       225.02244       15.048971       1
       16520.800       64.477895       10.561994       1
       16543.080       223.88341       15.491390       1
       16565.361       228.69831       15.782372       1
       16587.641       219.10835       16.104866       1
       16609.922       236.22654       16.714833       1
       16632.202       212.92789       16.948754       1
       16654.483       242.11973       17.961158       1
       16676.763       211.05409       18.445496       1
       16699.044       210.34894       19.283667       1
       16721.325       195.72890       20.297855       1
       16743.605       219.87121       21.308094       1
       16765.886       195.66138       22.697281       0
       16788.166       229.13575       24.021441       0
       16810.447       229.28222       25.594276       0
       16832.727       218.85555       26.855248       0
       16855.008       120.29869       28.084878       0
       16877.288       220.30884       29.934564       0
       16899.569       155.14267       31.369472       0
       16921.849       261.69743       33.220708       0
       16944.130       251.86488       34.929630       0
       16966.410       349.35861       37.235527       0
       16988.691       113.14985       38.402015       0
       17010.971       251.03876       40.891405       0
       17033.252       380.73300       42.832506       0
       17055.533       123.88233       44.648064       0
       17077.813      -52.961453       46.634123       0
       17100.094       147.40858       50.176746       0
