#WAVELENGTH FLUX ERROR MASK
       10233.427       1492.7481       152.46056       0
       10256.352       2297.7194       144.60265       0
       10279.278       1350.4889       130.47423       0
       10302.203       1840.8546       125.76149       0
       10325.128       181.37572       114.06320       0
       10348.054       1593.9846       112.68484       0
       10370.979      -441.55536       102.59610       0
       10393.905       1125.0614       102.47116       0
       10416.830       490.14319       93.776758       0
       10439.755       177.08491       90.567398       0
       10462.681       57.632842       82.285643       0
       10485.606      -96.718668       77.099589       0
       10508.531      -96.640498       69.242404       0
       10531.457       239.69122       66.370058       0
       10554.382       284.01667       59.820835       0
       10577.307       542.86125       58.188817       0
       10600.233       328.31933       52.995644       0
       10623.158       284.39649       51.984376       0
       10646.084      -38.485617       46.950123       0
       10669.009       149.37680       46.084006       0
       10691.934       190.10464       45.408071       0
       10714.860       291.73581       40.296893       0
       10737.785       161.73662       13406659.       0
       10760.710       150.90632       33.365711       0
       10783.636       205.41334       30.020728       0
       10806.561       287.09299       28.764346       0
       10829.487       191.05543       25.776013       0
       10852.412       153.67084       24.865814       0
       10875.337       192.48809       23.301839       0
       10898.263       200.89611       22.849483       0
       10921.188       226.19040       21.710275       0
       10944.113       194.48809       21.603212       0
       10967.039       198.73852       20.263066       0
       10989.964       196.88298       20.232015       0
       11012.890       222.73542       19.190310       1
       11035.815       225.77887       19.245085       1
       11058.740       210.87752       17.967256       1
       11081.666       208.96703       18.223019       1
       11104.591       223.28360       17.416617       1
       11127.516       217.85208       17.515198       1
       11150.442       202.67213       16.766095       1
       11173.367       225.57704       17.208601       1
       11196.292       212.15131       16.612364       1
       11219.218       204.66743       16.912738       1
       11242.143       202.18682       5730486.5       1
       11265.069       210.41443       16.797045       1
       11287.994       196.34771       16.139090       1
       11310.919       199.92972       16.656180       1
       11333.845       184.45683       16.197697       1
       11356.770       171.92530       16.238862       1
       11379.695       216.79044       15.998916       1
       11402.621       186.88987       16.245466       1
       11425.546       189.51712       15.724852       1
       11448.472       187.60874       16.105890       1
       11471.397       180.15582       15.593297       1
       11494.322       168.58353       15.957700       1
       11517.248       190.84652       15.530588       1
       11540.173       185.00038       15.983836       1
       11563.098       190.82347       15.616242       1
       11586.024       174.26824       15.849301       1
       11608.949       197.68793       15.611628       1
       11631.875       183.05806       15.832666       1
       11654.800       205.09487       15.495532       1
       11677.725       211.71314       5323043.4       1
       11700.651       197.55138       15.339009       1
       11723.576       203.29560       15.713745       1
       11746.501       191.74110       15.105382       1
       11769.427       218.65110       15.719681       1
       11792.352       204.33848       15.068004       1
       11815.277       216.55083       15.542877       1
       11838.203       197.01094       14.966113       1
       11861.128       192.93530       15.297758       1
       11884.054       213.16989       14.921991       1
       11906.979       215.34413       15.296444       1
       11929.904       254.47000       15.106064       1
       11952.830       221.21280       15.297864       1
       11975.755       221.53650       14.795408       1
       11998.680       225.89228       15.159487       1
       12021.606       201.34698       14.605769       1
       12044.531       214.99420       15.024733       1
       12067.457       213.61862       14.599202       1
       12090.382       204.68871       14.916467       1
       12113.307       173.77950       14.271224       1
       12136.233       213.07172       14.914395       1
       12159.158       197.56709       14.313242       1
       12182.083       190.91009       14.399254       1
       12205.009       191.19446       14.251677       1
       12227.934       209.53783       14.806097       1
       12250.860       182.39325       14.048975       1
       12273.785       192.80936       14.543164       1
       12296.710       194.96982       14.178971       1
       12319.636       194.03684       14.453396       1
       12342.561       167.42669       13.815258       1
       12365.486       185.31811       14.346156       1
       12388.412       181.75911       13.885478       1
       12411.337       213.06083       14.583108       1
       12434.262       173.12786       13.848058       1
       12457.188       193.01533       14.282806       1
       12480.113       159.96994       13.554859       1
       12503.039       197.49623       14.290099       1
       12525.964       175.27625       13.712457       1
       12548.889       208.61648       14.258319       1
       12571.815       171.11951       13.574380       1
       12594.740       165.79872       13.931570       1
       12617.665       171.85900       13.601939       1
       12640.591       186.98060       14.090467       1
       12663.516       191.40742       13.818820       1
       12686.442       174.07149       14.021634       1
       12709.367       179.85424       13.664037       1
       12732.292       196.05652       14.013467       1
       12755.218       187.01279       13.584215       1
       12778.143       167.88541       13.711449       1
       12801.068       177.11762       13.476718       1
       12823.994       183.52709       13.857939       1
       12846.919       193.48179       13.497680       1
       12869.845       191.46676       13.921789       1
       12892.770       188.69696       13.479779       1
       12915.695       192.90254       13.839376       1
       12938.621       198.75387       13.355156       1
       12961.546       197.44506       13.725298       1
       12984.471       190.16856       13.386087       1
       13007.397       205.37783       13.819153       1
       13030.322       199.28943       13.277677       1
       13053.247       192.73942       13.576351       1
       13076.173       173.34679       13.051437       1
       13099.098       186.42038       13.535820       1
       13122.024       180.81947       13.184970       1
       13144.949       191.31943       13.494058       1
       13167.874       169.72483       13.030660       1
       13190.800       186.95703       13.257381       1
       13213.725       176.66350       12.952887       1
       13236.650       190.11192       13.376920       1
       13259.576       173.51620       12.970496       1
       13282.501       169.60516       13.162817       1
       13305.427       171.33630       12.884028       1
       13328.352       189.88245       13.259206       1
       13351.277       174.59395       12.921963       1
       13374.203       174.15369       13.102711       1
       13397.128       163.48020       12.809201       1
       13420.053       187.79232       13.184788       1
       13442.979       167.34235       12.783389       1
       13465.904       182.31970       4268161.3       1
       13488.830       168.34545       12.757953       1
       13511.755       179.06233       13.105645       1
       13534.680       168.20245       12.595748       1
       13557.606       154.14128       12.868216       1
       13580.531       148.46823       12.435169       1
       13603.456       175.64731       12.980206       1
       13626.382       164.44463       12.637926       1
       13649.307       173.34474       13.017198       1
       13672.232       171.82706       12.628290       1
       13695.158       168.61751       13.020775       1
       13718.083       164.31685       12.635860       1
       13741.009       170.02528       13.023539       1
       13763.934       167.20937       12.647401       1
       13786.859       174.10023       13.053195       1
       13809.785       170.89936       12.695567       1
       13832.710       166.83466       13.003524       1
       13855.635       171.36581       12.680543       1
       13878.561       161.62092       12.916142       1
       13901.486       170.28833       12.658926       1
       13924.412       174.95756       13.000736       1
       13947.337       159.15938       12.490380       1
       13970.262       176.95628       12.999417       1
       13993.188       179.21468       12.619565       1
       14016.113       173.95922       12.859133       1
       14039.038       171.42228       12.462448       1
       14061.964       174.50729       12.886646       1
       14084.889       178.43854       12.539164       1
       14107.815       171.72856       12.797316       1
       14130.740       183.71593       12.585171       1
       14153.665       181.20748       12.869216       1
       14176.591       176.86070       12.524955       1
       14199.516       179.95281       12.856258       1
       14222.441       170.91993       12.415875       1
       14245.367       180.41713       12.764041       1
       14268.292       176.85572       12.352419       1
       14291.217       171.34124       12.633009       1
       14314.143       170.26318       12.380606       1
       14337.068       165.92611       12.623718       1
       14359.994       178.13704       12.410916       1
       14382.919       183.26826       12.671467       1
       14405.844       167.10117       12.307777       1
       14428.770       172.75648       12.655011       1
       14451.695       168.23476       12.246110       1
       14474.620       175.39101       12.648147       1
       14497.546       179.67569       12.351218       1
       14520.471       188.01740       12.729128       1
       14543.397       169.69558       12.216909       1
       14566.322       164.85361       12.529050       1
       14589.247       163.58382       12.200425       1
       14612.173       174.44331       12.605393       1
       14635.098       173.77440       12.198412       1
       14658.023       162.54737       12.535770       1
       14680.949       167.97688       12.179394       1
       14703.874       158.57394       12.470181       1
       14726.799       156.57507       12.183149       1
       14749.725       158.20000       12.460377       1
       14772.650       172.97101       12.274936       1
       14795.576       169.53767       12.603331       1
       14818.501       171.98124       12.264614       1
       14841.426       158.88206       12.493981       1
       14864.352       154.92680       12.098526       1
       14887.277       141.26651       12.230088       1
       14910.202       166.34739       12.144886       1
       14933.128       157.58233       12.275911       1
       14956.053       146.35847       11.976260       1
       14978.979       150.86122       12.252446       1
       15001.904       157.29183       11.994383       1
       15024.829       140.54663       12.092456       1
       15047.755       153.26753       11.895057       1
       15070.680       150.22750       12.185188       1
       15093.605       163.31484       12.045755       1
       15116.531       147.72416       12.156193       1
       15139.456       157.78895       11.941968       1
       15162.382       155.86786       12.194252       1
       15185.307       161.61495       11.991873       1
       15208.232       174.02297       12.290892       1
       15231.158       164.34662       11.939523       1
       15254.083       173.48608       12.364577       1
       15277.008       149.01511       11.801877       1
       15299.934       156.28897       12.203403       1
       15322.859       86.162677       8.9896765       1
       15345.784       143.06431       12.021494       1
       15368.710       168.45049       11.939667       1
       15391.635       141.27797       12.037488       1
       15414.561       159.68582       11.871563       1
       15437.486       145.02999       11.961628       1
       15460.411       157.71014       11.845719       1
       15483.337       147.13536       11.970851       1
       15506.262       145.74308       11.698216       1
       15529.187       143.20778       12.050503       1
       15552.113       153.98260       11.810129       1
       15575.038       166.72767       12.138351       1
       15597.964       156.08597       11.836069       1
       15620.889       151.28431       12.034573       1
       15643.814       187.86041       12.139054       1
       15666.740       167.04239       12.146332       1
       15689.665       169.18881       11.864682       1
       15712.590       169.59643       12.147260       1
       15735.516       150.92309       11.694316       1
       15758.441       158.38319       12.011521       1
       15781.367       169.00201       11.817481       1
       15804.292       156.59917       11.990285       1
       15827.217       167.26359       11.747901       1
       15850.143       152.45884       11.849061       1
       15873.068       152.92177       11.625220       1
       15895.993       70.726308       8.6841637       1
       15918.919       171.94144       11.805233       1
       15941.844       66.732766       8.6205123       1
       15964.769       166.06232       11.708162       1
       15987.695       67.280174       8.6310667       1
       16010.620       168.33145       11.760546       1
       16033.546       73.696034       8.6815141       1
       16056.471       93.695076       7.9253442       1
       16079.396       71.038477       8.5908370       1
       16102.322       95.017605       7.9534929       1
       16125.247       66.697658       8.5825601       1
       16148.172       91.555963       7.8964869       1
       16171.098       72.378528       8.6355118       1
       16194.023       90.524797       7.8977443       1
       16216.949       64.708205       8.5072726       1
       16239.874       94.192041       7.9039917       1
       16262.799       60.978780       8.5892960       1
       16285.725       96.748884       7.9550805       1
       16308.650       63.942014       8.4646245       1
       16331.575       93.414737       7.9180650       1
       16354.501     -0.28238641       0.0000000       1
       16377.426     -0.27457402       0.0000000       1
       16400.352     -0.26872012       0.0000000       1
       16423.277     -0.26450911       0.0000000       1
       16446.202     -0.26180819       0.0000000       1
       16469.128     -0.26118818       0.0000000       1
       16492.053     -0.26279008       0.0000000       1
       16514.978     -0.26696775       0.0000000       1
       16537.904     -0.27453438       0.0000000       1
       16560.829     -0.28631787       0.0000000       1
       16583.754     -0.30339830       0.0000000       1
       16606.680     -0.32621766       0.0000000       1
       16629.605     -0.35592772       0.0000000       1
       16652.531     -0.39356411       0.0000000       1
       16675.456     -0.44060761       0.0000000       1
       16698.381     -0.49881899       0.0000000       1
       16721.307     -0.56985959       0.0000000       1
       16744.232     -0.65722819       0.0000000       1
       16767.157     -0.76378043       0.0000000       0
       16790.083     -0.89306387       0.0000000       0
       16813.008      -1.0443540       0.0000000       0
       16835.934      -1.2213391       0.0000000       0
       16858.859      -1.4184619       0.0000000       0
       16881.784      -1.6355459       0.0000000       0
       16904.710      -1.8665302       0.0000000       0
       16927.635      -2.1126419       0.0000000       0
       16950.560      -2.3856789       0.0000000       0
       16973.486      -2.6798638       0.0000000       0
       16996.411      -3.0123407       0.0000000       0
       17019.337      -3.3830967       0.0000000       0
       17042.262      -3.7984431       0.0000000       0
       17065.187      -4.2438981       0.0000000       0
       17088.113      -4.7132654       0.0000000       0
       17111.038      -5.2228858       0.0000000       0
       17133.963      -5.8321672       0.0000000       0
       17156.889      -6.5549977       0.0000000       0
       17179.814      -7.4767853       0.0000000       0
       17202.739      -8.3098932       0.0000000       0
       17225.665      -9.5813912       0.0000000       0
       17248.590      -11.023325       0.0000000       0
       17271.516      -12.548623       0.0000000       0
       17294.441      -14.125765       0.0000000       0
       17317.366      -15.811471       0.0000000       0
       17340.292      -17.527291       0.0000000       0
       17363.217      -19.342518       0.0000000       0
