#WAVELENGTH FLUX ERROR MASK
       7477.3830       21511.205       478.57700       0
       7489.2536       31210.028       373.11825       0
       7501.1243       6644.2120       434.50034       0
       7512.9950      -24214.898       306.81631       0
       7524.8657       13644.740       367.58355       0
       7536.7363      -4706.5876       263.30603       0
       7548.6070      -13883.742       298.69615       0
       7560.4777       2922.5489       210.81435       0
       7572.3483      -4501.4185       238.56038       0
       7584.2190       928.49010       169.13308       0
       7596.0897       5475.2381       197.64558       0
       7607.9604       5569.0909       141.16632       0
       7619.8310      -2814.3274       164.68173       0
       7631.7017      -189.31340       120.73048       0
       7643.5724      -611.69855       143.54339       0
       7655.4431      -315.41123       104.55705       0
       7667.3137       3654.5801       122.41836       0
       7679.1844       118.02483       87.933274       0
       7691.0551       226.29993       103.48835       0
       7702.9257       435.20457       74.594878       0
       7714.7964       1114.7062       89.318992       0
       7726.6671       130.98905       64.428874       0
       7738.5378       1082.0054       79.519228       0
       7750.4084       283.24750       57.965329       0
       7762.2791      -330.21213       70.629194       0
       7774.1498       88.064437       62.783476       0
       7786.0205       701.70065       67.015369       0
       7797.8911      -880.26965       87.969179       0
       7809.7618       373.97169       60.808115       0
       7821.6325       128.33303       45.095176       0
       7833.5032       999.35814       55.615177       0
       7845.3738      -104.20699       40.101266       0
       7857.2445       254.99958       49.684976       0
       7869.1152       220.11059       37.269828       0
       7880.9858       288.24359       45.719011       0
       7892.8565       311.52158       34.523502       0
       7904.7272      -330.57825       41.666866       0
       7916.5979       320.46667       32.677480       0
       7928.4685       437.99038       40.748968       0
       7940.3392       161.95138       31.011562       0
       7952.2099       50.596898       38.256728       0
       7964.0806       241.18787       29.550022       0
       7975.9512       244.46608       36.659477       0
       7987.8219       104.92661       28.347028       0
       7999.6926       368.04071       35.839291       0
       8011.5633       247.81947       27.902678       0
       8023.4339       161.50771       34.392172       0
       8035.3046       274.87074       26.899692       0
       8047.1753       440.14622       34.498743       0
       8059.0459       372.32267       26.706989       0
       8070.9166       235.59901       33.289986       0
       8082.7873       213.57745       26.163360       0
       8094.6580       179.34451       32.550250       0
       8106.5286       65.670327       25.307144       0
       8118.3993       196.21179       28.862460       0
       8130.2700       229.81752       23.438762       0
       8142.1407       313.06348       28.654930       0
       8154.0113       257.18493       23.020270       1
       8165.8820       297.14407       28.242416       1
       8177.7527       174.16816       22.495671       1
       8189.6233       186.38935       27.536509       1
       8201.4940       200.00073       22.165412       1
       8213.3647       230.46571       27.078295       1
       8225.2354       271.91536       21.801662       1
       8237.1060       49.725133       25.902178       1
       8248.9767       225.82058       21.274298       1
       8260.8474       182.22127       25.715503       1
       8272.7181       290.43360       20.843326       1
       8284.5887       334.57972       25.443185       1
       8296.4594       316.19649       20.559847       1
       8308.3301       330.98589       24.986287       1
       8320.2008       549.84499       25.232315       1
       8332.0714       261.96730       24.332542       1
       8343.9421       278.21809       19.698514       1
       8355.8128       253.36576       24.091673       1
       8367.6834       274.71639       19.502585       1
       8379.5541       285.88009       23.761338       1
       8391.4248       325.55424       19.414083       1
       8403.2955       294.37255       23.706660       1
       8415.1661       367.38221       19.259595       1
       8427.0368       282.42609       23.114918       1
       8438.9075       256.80341       18.689436       1
       8450.7782       189.46660       22.466739       1
       8462.6488       251.22375       18.417595       1
       8474.5195       316.16804       22.817128       1
       8486.3902       332.50105       18.355964       1
       8498.2608       134.21299       21.834475       1
       8510.1315       251.15104       17.879430       1
       8522.0022       238.70178       21.672434       1
       8533.8729       236.29268       18.904932       1
       8545.7435       300.11442       21.760366       1
       8557.6142       195.53879       17.524260       1
       8569.4849       350.70179       22.053522       1
       8581.3556       330.90416       17.834734       1
       8593.2262       260.33250       21.761060       1
       8605.0969       347.06055       17.776290       1
       8616.9676       221.99037       21.473306       1
       8628.8383       282.85036       17.590258       1
       8640.7089       197.64478       20.962249       1
       8652.5796       369.23326       17.814115       1
       8664.4503       302.25553       21.088535       1
       8676.3209       367.43289       17.549122       1
       8688.1916       294.66670       21.128946       1
       8700.0623       287.53361       17.095742       1
       8711.9330       377.91383       21.119966       1
       8723.8036       282.88938       16.759567       1
       8735.6743       361.86024       20.854357       1
       8747.5450       308.31690       16.626052       1
       8759.4157       248.18276       20.135947       1
       8771.2863       331.16990       16.514568       1
       8783.1570       227.69048       19.982188       1
       8795.0277       244.17276       16.168768       1
       8806.8983       317.87024       19.722670       1
       8818.7690       264.71830       15.883041       1
       8830.6397       251.12949       19.491514       1
       8842.5104       273.24001       15.847998       1
       8854.3810       320.56020       19.595118       1
       8866.2517       282.77416       15.837239       1
       8878.1224       323.88162       19.537505       1
       8889.9931       230.33405       15.536944       1
       8901.8637       288.14609       19.113769       1
       8913.7344       283.31393       15.619299       1
       8925.6051       300.00347       19.215589       1
       8937.4758       255.27485       15.421199       1
       8949.3464       151.78946       18.552365       1
       8961.2171       233.71161       15.178443       1
       8973.0878       269.10279       18.650836       1
       8984.9584       291.03373       15.264043       1
       8996.8291       282.01192       18.667159       1
       9008.6998       269.67889       15.131453       1
       9020.5705       269.09019       18.549957       1
       9032.4411       259.11843       14.964033       1
       9044.3118       290.22702       18.510728       1
       9056.1825       273.91784       14.991444       1
       9068.0532       343.78385       18.779049       1
       9079.9238       268.05894       14.984513       1
       9091.7945       339.50427       18.573594       1
       9103.6652       258.11057       14.768243       1
       9115.5358       301.94068       20.041031       1
       9127.4065       275.81483       15.485561       1
       9139.2772       237.98919       19.663242       1
       9151.1479       252.32373       15.390656       1
       9163.0185       331.76123       19.885054       1
       9174.8892       296.44877       15.484884       1
       9186.7599       344.70850       19.757189       1
       9198.6306       337.65450       15.332257       1
       9210.5012       287.64583       19.345242       1
       9222.3719       326.98547       15.340281       1
       9234.2426       298.55383       25.446588       1
       9246.1133       299.47458       15.251741       1
       9257.9839       347.62936       25.358576       1
       9269.8546       295.88265       15.138752       1
       9281.7253       318.88501       19.166490       1
       9293.5959       194.35052       14.745694       1
       9305.4666       228.25935       18.795961       1
       9317.3373       269.33827       14.897304       1
       9329.2080       232.52972       18.737783       1
       9341.0786       287.45235       14.866887       1
       9352.9493       252.06882       18.116522       1
       9364.8200       248.40124       14.692188       1
       9376.6907       332.24575       18.898577       1
       9388.5613       219.32815       14.618238       1
       9400.4320       273.26940       18.607409       1
       9412.3027       279.99604       14.685751       1
       9424.1733       246.06092       18.358086       1
       9436.0440       280.18051       14.509050       1
       9447.9147       244.74847       18.374400       1
       9459.7854       251.69715       17.447490       1
       9471.6560       226.16430       18.144487       1
       9483.5267       266.02276       14.299330       1
       9495.3974       330.14927       18.402724       1
       9507.2681       259.69966       14.251737       1
       9519.1387       313.01090       18.359158       1
       9531.0094       306.41408       14.311907       1
       9542.8801       222.84454       17.891428       1
       9554.7508       271.30167       13.912184       1
       9566.6214       362.52099       18.286366       1
       9578.4921       276.31122       14.137553       1
       9590.3628       281.59227       17.990647       1
       9602.2334       248.24967       13.981080       1
       9614.1041       294.35136       17.657755       1
       9625.9748       285.79539       14.037921       1
       9637.8455       253.02672       17.532556       1
       9649.7161       253.83794       13.897240       1
       9661.5868       285.95207       17.660007       1
       9673.4575       347.51383       14.035564       1
       9685.3282       242.97082       17.530016       1
       9697.1988       281.49577       13.881625       1
       9709.0695       279.13626       17.463475       1
       9720.9402       278.80488       13.757481       1
       9732.8108       323.39359       17.717988       1
       9744.6815       216.67313       13.595244       1
       9756.5522       211.32817       17.201761       1
       9768.4229       260.39676       13.701167       1
       9780.2935       259.54423       17.183114       1
       9792.1642       240.13403       13.556095       1
       9804.0349       233.06070       17.101133       1
       9815.9056       278.01069       13.635825       1
       9827.7762       249.08220       17.079255       1
       9839.6469       225.03297       13.460059       1
       9851.5176       254.35829       17.154445       1
       9863.3883       240.10495       13.391729       1
       9875.2589       261.68241       17.041391       1
       9887.1296       255.02232       13.366590       1
       9899.0003      -4.6550608       0.0000000       1
       9910.8709       271.18399       13.441754       1
       9922.7416       205.42182       16.908993       1
       9934.6123       265.82472       13.388943       1
       9946.4830       268.73046       17.073300       1
       9958.3536       248.18587       13.309397       1
       9970.2243       184.30593       16.099639       1
       9982.0950       235.78656       13.168580       1
       9993.9657       240.15223       16.682055       1
       10005.836       216.01557       13.080231       1
       10017.707       244.86917       16.646783       1
       10029.578       205.51024       12.965115       1
       10041.448       288.66223       16.763944       1
       10053.319       245.67066       13.124025       1
       10065.190       265.10361       16.713795       1
       10077.060       252.77373       13.135240       1
       10088.931       269.80949       16.220754       1
       10100.802       293.70896       13.200940       1
       10112.672       256.76109       15.036544       1
       10124.543       260.25471       12.231117       1
       10136.414       250.42860       14.860970       1
       10148.284       246.47032       12.077838       1
       10160.155       305.54106       15.203894       1
       10172.026       244.09142       12.144803       1
       10183.896       258.37568       14.900392       1
       10195.767       269.67584       12.206931       1
       10207.638       215.76675       14.324670       1
       10219.508       261.57790       12.125054       1
       10231.379       288.75953       14.999850       1
       10243.250       267.15602       12.006886       1
       10255.120       276.76429       14.941742       1
       10266.991       249.50529       11.933744       1
       10278.862       239.15361       14.517213       1
       10290.732       248.19143       11.846560       1
       10302.603       258.75960       14.613064       1
       10314.474       252.96283       11.885748       1
       10326.345       259.03698       14.543567       1
       10338.215       236.69149       11.826930       1
       10350.086       270.60827       14.628974       1
       10361.957       235.53166       11.743562       1
       10373.827       244.93775       14.586849       1
       10385.698       235.09442       11.817886       1
       10397.569       238.74728       14.508779       1
       10409.439       250.88503       11.862606       1
       10421.310       243.93727       14.473592       1
       10433.181       302.24390       11.912930       1
       10445.051       281.44569       14.587456       1
       10456.922       278.31016       11.876446       1
       10468.793       252.03683       14.407230       1
       10480.663       269.43535       11.935678       1
       10492.534       238.62558       14.412989       1
       10504.405       242.69136       14.385477       1
       10516.275       236.49053       14.332043       1
       10528.146       225.59405       12.001183       1
       10540.017       258.31593       14.573731       1
       10551.887       256.78731       11.832035       1
       10563.758       252.80519       14.572175       1
       10575.629       252.34814       11.768609       1
       10587.499       275.57538       14.536733       1
       10599.370       264.62477       11.735656       1
       10611.241       315.25452       14.691558       1
       10623.111       250.38111       11.702442       1
       10634.982       217.93602       14.165148       1
       10646.853       215.69573       11.333474       1
       10658.723       266.15576       14.296123       1
       10670.594       243.17627       11.404609       1
       10682.465       291.90646       14.524804       1
       10694.335       253.69718       11.585112       1
       10706.206       267.65012       14.158517       1
       10718.077       222.26501       11.441835       1
       10729.947       268.62806       14.092224       1
       10741.818       218.41581       11.445970       1
       10753.689       248.42785       14.286393       1
       10765.559       225.17637       11.506415       1
       10777.430       259.69778       14.276652       1
       10789.301       257.77715       11.571913       1
       10801.171       268.35742       14.311444       1
       10813.042       248.35670       11.510140       1
       10824.913       274.16549       14.345485       1
       10836.783       217.94794       11.327092       1
       10848.654       263.70987       14.263325       1
       10860.525       252.11777       11.477332       1
       10872.395       249.50350       14.049644       1
       10884.266       219.48943       11.355713       1
       10896.137       283.37172       14.262246       1
       10908.007       234.85884       11.375641       1
       10919.878       272.41965       14.229872       1
       10931.749       220.85977       11.368708       1
       10943.620       299.81732       14.337272       1
       10955.490       208.84965       11.031679       1
       10967.361       266.21386       14.224321       1
       10979.232       242.39297       11.353812       1
       10991.102       216.27309       13.906782       1
       11002.973       225.41745       11.316694       1
       11014.844       241.40953       13.965566       1
       11026.714       224.05986       11.265939       1
       11038.585       263.10871       14.040138       1
       11050.456       201.21617       19.255888       1
       11062.326       263.48361       14.123179       1
       11074.197       234.52116       11.323779       1
       11086.068       249.28261       13.980750       1
       11097.938       229.57418       11.300505       1
       11109.809       248.12871       13.914620       1
       11121.680       254.92513       11.920255       1
       11133.550       288.90499       15.602875       1
       11145.421       255.72520       12.128302       1
       11157.292       266.23477       15.577204       1
       11169.162       240.29374       12.105171       1
       11181.033       238.30355       15.460064       1
       11192.904       269.25018       11.863383       1
       11204.774       289.63247       15.568468       0
       11216.645       230.57976       12.126692       0
       11228.516       270.85216       15.355956       0
       11240.386       250.77404       12.219487       0
       11252.257       188.28851       15.225638       0
       11264.128       251.35914       12.182310       0
       11275.998       234.58796       15.303394       0
       11287.869       228.57132       12.077853       0
       11299.740       247.93765       15.426915       0
       11311.610       197.31007       12.042286       0
       11323.481       249.49150       15.642952       0
       11335.352       281.45847       12.663010       0
       11347.222       243.80498       16.152299       0
       11359.093       273.14722       16.248182       0
       11370.964       261.01236       17.278854       0
       11382.834       279.39166       17.335248       0
       11394.705       343.50091       28.794636       0
       11406.576       222.91092       19.009729       0
       11418.446       222.41444       20.693543       0
       11430.317       304.51639       17.575833       0
       11442.188       338.82375       23.773745       0
       11454.058       313.40323       19.477062       0
       11465.929       147.80308       25.877061       0
       11477.800       204.76902       21.427756       0
       11489.670       394.06626       29.194951       0
       11501.541       205.95460       23.744515       0
       11513.412       272.56723       31.979584       0
       11525.282       122.69453       26.529348       0
       11537.153       317.85845       37.121221       0
       11549.024       156.87070       31.094652       0
       11560.895       507.02623       44.815472       0
       11572.765       681.60673       38.992295       0
       11584.636      -125.71358       54.177013       0
       11596.507       1023.5716       47.986887       0
       11608.377      -387.84077       66.267013       0
       11620.248       555.93794       57.833165       0
       11632.119       195.05437       80.551895       0
       11643.989      -1454.9591       67.934849       0
       11655.860      -1063.9396       99.119227       0
       11667.731       978.36559       89.607056       0
       11679.601      -1515.1552       128.90064       0
       11691.472      -1044.3906       115.56375       0
       11703.343      -1317.4408       168.81754       0
       11715.213       4881.5901       149.09758       0
       11727.084      -2138.5530       200.63504       0
       11738.955      -1797.9206       161.17540       0
