#WAVELENGTH FLUX ERROR MASK
       10224.548       1408.0980       165.68347       0
       10247.504      -517.49389       136.48244       0
       10270.460       1522.7019       142.88751       0
       10293.416       998.87361       129.64904       0
       10316.372       1520.1018       124.85077       0
       10339.328       133.84366       114.49234       0
       10362.284      -169.83172       111.45496       0
       10385.240       381.34687       34169289.       0
       10408.196       510.00639       102.44852       0
       10431.152      -467.31767       93.731713       0
       10454.108       124.28370       90.005527       0
       10477.064      -68.122495       81.095623       0
       10500.020       290.10106       76.628368       0
       10522.977       332.46703       68.321454       0
       10545.933       3.7831507       64.746722       0
       10568.889       21.726999       58.698332       0
       10591.845       353.31069       57.591776       0
       10614.801       54.158685       52.301946       0
       10637.757       60.197425       51.315738       0
       10660.713       58.928511       47.309045       0
       10683.669       135.67775       45.521728       0
       10706.625       108.97102       40.927055       0
       10729.581       127.39989       38.764610       0
       10752.537       116.20202       34.457225       0
       10775.493       86.740892       32.392832       0
       10798.449       80.197336       28.569653       0
       10821.406       122.74273       27.733577       0
       10844.362       75.285090       25.066662       0
       10867.318       77.477737       24.502168       0
       10890.274       101.11967       22.855815       0
       10913.230       120.40074       22.671814       0
       10936.186       84.581139       21.251645       0
       10959.142       47.731115       20.954180       0
       10982.098       106.75354       20.072527       0
       11005.054       69.361662       19.652593       1
       11028.010       116.93518       18.804090       1
       11050.966       78.913135       18.520031       1
       11073.922       85.703873       17.494171       1
       11096.878       98.555026       17.719761       1
       11119.835       114.73813       17.002917       1
       11142.791       98.756194       17.080322       1
       11165.747       99.435489       16.482374       1
       11188.703       96.478510       16.777685       1
       11211.659       77.169332       16.117485       1
       11234.615       92.422456       16.550545       1
       11257.571       65.864691       15.825571       1
       11280.527       97.012647       16.416816       1
       11303.483       103.81921       15.979172       1
       11326.439       76.841844       16.093181       1
       11349.395       79.797177       15.597289       1
       11372.351       62.765450       15.909434       1
       11395.307       66.477960       15.359142       1
       11418.264       88.172362       15.931302       1
       11441.220       80.441862       15.371430       1
       11464.176       108.79721       15.977816       1
       11487.132       81.242320       15.316002       1
       11510.088       97.024842       15.845353       1
       11533.044       68.033973       15.182658       1
       11556.000       73.992632       15.614566       1
       11578.956       107.14391       15.411584       1
       11601.912       90.452984       15.672649       1
       11624.868       53.394048       12.819447       1
       11647.824       81.790435       15.493179       1
       11670.780       90.481248       15.019281       1
       11693.736       97.382485       15.403660       1
       11716.693       86.345844       14.832176       1
       11739.649       78.499595       15.134591       1
       11762.605       89.770422       14.728397       1
       11785.561       86.089567       15.065571       1
       11808.517       96.188571       14.563428       1
       11831.473       99.795308       15.085861       1
       11854.429       95.451468       14.583616       1
       11877.385       85.489292       14.874113       1
       11900.341       80.334292       12.951651       1
       11923.297       93.058733       14.853335       1
       11946.253       106.99432       14.556159       1
       11969.209       99.348801       14.772875       1
       11992.165       89.927684       14.339889       1
       12015.122       89.882956       14.601628       1
       12038.078       90.519465       14.219917       1
       12061.034       93.585073       14.532845       1
       12083.990       94.282790       14.222153       1
       12106.946       90.274401       14.421831       1
       12129.902       77.756339       13.939682       1
       12152.858       88.849233       14.332785       1
       12175.814       84.142346       13.983040       1
       12198.770       93.094176       14.232431       1
       12221.726       85.490020       13.947174       1
       12244.682       83.595906       14.076369       1
       12267.638       83.204294       13.818764       1
       12290.594       100.47227       14.163697       1
       12313.551       82.967574       13.673861       1
       12336.507       79.454282       13.958255       1
       12359.463       59.970668       12.455920       1
       12382.419       86.807096       13.982678       1
       12405.375       87.371894       13.667807       1
       12428.331       86.175110       13.876185       1
       12451.287       90.532329       13.598362       1
       12474.243       104.18724       13.974249       1
       12497.199       85.128075       13.498387       1
       12520.155       90.462980       13.577275       1
       12543.111       90.406657       13.245979       1
       12566.067       89.219974       13.504392       1
       12589.023       99.009912       13.171746       1
       12611.980       83.516192       13.451458       1
       12634.936       86.228673       12.988161       1
       12657.892       89.029893       13.410069       1
       12680.848       72.747597       12.893835       1
       12703.804       105.60578       13.556877       1
       12726.760       80.685224       12.860483       1
       12749.716       93.106729       13.343759       1
       12772.672       86.957522       12.793450       1
       12795.628       95.869228       13.269093       1
       12818.584       80.088224       12.632973       1
       12841.540       87.416357       13.136952       1
       12864.496       92.186398       12.710852       1
       12887.452       99.447278       13.211779       1
       12910.409       92.197247       12.658255       1
       12933.365       97.952109       13.076725       1
       12956.321       83.801993       12.494174       1
       12979.277       90.523901       12.856812       1
       13002.233       92.175673       12.501812       1
       13025.189       95.136834       12.881853       1
       13048.145       93.230636       12.468166       1
       13071.101       92.358100       12.815604       1
       13094.057       81.792026       12.315658       1
       13117.013       86.326809       12.723863       1
       13139.969       86.614740       12.469235       1
       13162.925       86.399842       12.782136       1
       13185.881       78.163813       12.300174       1
       13208.838       82.959590       12.656051       1
       13231.794       67.367257       12.223801       1
       13254.750       85.557856       12.671912       1
       13277.706       69.599807       12.174216       1
       13300.662       84.519097       12.523259       1
       13323.618       89.269964       12.356319       1
       13346.574       81.638439       12.514787       1
       13369.530       81.919361       12.217140       1
       13392.486       80.162156       12.444080       1
       13415.442       64.560008       12.713543       1
       13438.398       66.237549       12.275764       1
       13461.354       85.702191       12.206271       1
       13484.310       70.494807       12.333416       1
       13507.267       76.052696       12.308334       1
       13530.223       75.448773       12.288428       1
       13553.179       77.403615       11.965912       1
       13576.135       74.992479       12.259809       1
       13599.091       71.091854       12.041285       1
       13622.047       73.135351       12.253875       1
       13645.003       70.264304       11.838431       1
       13667.959       80.655267       12.354754       1
       13690.915       73.633621       11.975412       1
       13713.871       85.762184       12.358784       1
       13736.827       71.074119       12.000376       1
       13759.783       82.907925       12.326234       1
       13782.739       74.430048       11.987452       1
       13805.695       87.637530       12.422428       1
       13828.652       70.376274       11.862923       1
       13851.608       90.070835       12.435835       1
       13874.564       76.360686       11.921947       1
       13897.520       68.126987       12.252912       1
       13920.476       87.190609       11.955540       1
       13943.432       79.915791       12.324164       1
       13966.388       70.160630       11.889083       1
       13989.344       75.357299       12.200574       1
       14012.300       73.814864       11.928214       1
       14035.256       69.242388       12.102031       1
       14058.212       85.608307       11.950649       1
       14081.168       83.832443       12.215774       1
       14104.124       69.405154       11.755283       1
       14127.081       70.691258       12.026166       1
       14150.037       83.045717       11.792935       1
       14172.993       74.266316       12.013399       1
       14195.949       76.454840       11.736396       1
       14218.905       84.884182       12.084905       1
       14241.861       76.426647       11.704818       1
       14264.817       74.960593       11.934327       1
       14287.773       73.639506       11.652023       1
       14310.729       79.129709       11.949405       1
       14333.685       86.254238       11.724656       1
       14356.641       88.437564       11.979718       1
       14379.597       79.942421       11.581334       1
       14402.553       85.552604       11.742801       1
       14425.510       78.302760       11.594949       1
       14448.466       66.152773       11.696238       1
       14471.422       87.082877       11.518880       1
       14494.378       73.103336       11.732206       1
       14517.334       79.641838       11.420018       1
       14540.290       84.864051       11.822576       1
       14563.246       81.540416       11.441063       1
       14586.202       83.907618       11.791647       1
       14609.158       71.891087       11.338675       1
       14632.114       86.852470       11.826047       1
       14655.070       79.100250       11.343329       1
       14678.026       90.153424       11.845705       1
       14700.982       73.545378       11.384408       1
       14723.939       74.086613       11.683059       1
       14746.895       80.520040       11.387272       1
       14769.851       74.226751       11.658748       1
       14792.807       58.474778       11.231765       1
       14815.763       80.541854       11.685733       1
       14838.719       67.724855       11.226224       1
       14861.675       72.296907       11.564407       1
       14884.631       82.561859       11.331045       1
       14907.587       72.620861       11.486497       1
       14930.543       74.543762       11.219302       1
       14953.499       77.678235       11.509614       1
       14976.455       74.968319       11.152975       1
       14999.411       84.958631       11.565496       1
       15022.368       75.745576       11.732467       1
       15045.324       83.887660       11.515709       1
       15068.280       66.614289       11.536212       1
       15091.236       80.723857       11.511607       1
       15114.192       82.180149       11.442077       1
       15137.148       78.961699       11.608141       1
       15160.104       82.274538       11.372252       1
       15183.060       86.937541       11.664510       1
       15206.016       82.370824       11.361241       1
       15228.972       89.364994       11.635573       1
       15251.928       82.497741       11.387724       1
       15274.884       76.541996       11.474162       1
       15297.840       75.198738       11.342454       1
       15320.797       85.598757       11.556632       1
       15343.753       77.074482       11.247825       1
       15366.709       92.223422       11.608253       1
       15389.665       77.311517       11.298821       1
       15412.621       71.437607       11.465547       1
       15435.577       81.712510       11.308402       1
       15458.533       83.193438       11.551896       1
       15481.489       77.199518       11.268818       1
       15504.445       80.879746       11.590974       1
       15527.401       85.216810       11.349482       1
       15550.357       83.076777       11.640322       1
       15573.313       77.631754       11.279956       1
       15596.269       84.491448       11.619404       1
       15619.226       75.980438       11.267218       1
       15642.182       84.674782       12.061166       1
       15665.138       78.161093       11.239784       1
       15688.094       82.453740       11.581155       1
       15711.050       86.956782       11.375699       1
       15734.006       82.330969       11.564178       1
       15756.962       87.573694       11.392245       1
       15779.918       74.151190       11.308142       1
       15802.874       81.327879       11.098800       1
       15825.830       74.963128       11.375961       1
       15848.786       66.148204       10.990976       1
       15871.742       65.594294       11.278564       1
       15894.698       75.195207       11.057521       1
       15917.655       71.497344       11.312399       1
       15940.611       60.286372       10.931695       1
       15963.567       75.012572       11.396095       1
       15986.523       72.321361       11.034887       1
       16009.479       64.060459       11.293416       1
       16032.435       56.894351       10.954920       1
       16055.391       76.437031       11.409346       1
       16078.347       75.920031       11.091237       1
       16101.303       70.671389       11.397922       1
       16124.259       70.902071       10.937248       1
       16147.215       70.457794       11.356608       1
       16170.171       76.201221       11.024494       1
       16193.127       72.586384       11.292318       1
       16216.084       65.050954       10.955927       1
       16239.040       83.648337       11.498580       1
       16261.996       71.226390       11.209308       1
       16284.952       69.909739       11.436695       1
       16307.908       84.765235       11.313715       1
       16330.864       63.802874       11.430192       1
       16353.820       82.422043       11.347895       1
       16376.776       73.619668       11.468840       1
       16399.732       63.211185       11.104001       1
       16422.688       75.231010       11.495388       1
       16445.644       60.477099       11.104387       1
       16468.600       76.360569       11.563299       1
       16491.556       70.476733       11.294840       1
       16514.513       67.739843       11.596830       1
       16537.469       73.013321       11.396518       1
       16560.425       77.954742       11.883485       1
       16583.381       80.063961       11.745897       1
       16606.337       76.874989       12.353560       1
       16629.293       77.039710       12.243239       1
       16652.249       76.296936       12.951047       1
       16675.205       53.570069       12.932861       1
       16698.161       48.323075       13.936713       1
       16721.117       79.768264       14.498305       1
       16744.073       87.670014       15.669660       1
       16767.029       71.493783       16.093059       0
       16789.985       71.321112       17.652915       0
       16812.942       53.855399       18.219122       0
       16835.898       111.31561       20.181465       0
       16858.854       75.231656       20.576744       0
       16881.810       76.674123       22.447028       0
       16904.766       37.262626       22.725953       0
       16927.722       65.440970       25.094512       0
       16950.678       32.285161       25.538964       0
       16973.634       66.868775       27.936164       0
       16996.590       36.206560       28.345303       0
       17019.546       46.608981       30.874482       0
       17042.502       49.846796       31.676318       0
       17065.458       84.533103       34.538665       0
       17088.414      -18.044452       35.342224       0
       17111.371       36.124667       38.482891       0
       17134.327       141.18856       40.054690       0
       17157.283       99.480212       43.548639       0
       17180.239       156.66887       45.576055       0
       17203.195       309.61750       50.374961       0
       17226.151       54.363510       52.412050       0
       17249.107       524.70248       57.804639       0
       17272.063       55.282065       59.031760       0
       17295.019       348.89812       64.369739       0
       17317.975       195.59595       65.913391       0
       17340.931       8.3345835       70.317399       0
       17363.887      -120.09723       71.719533       0
