#WAVELENGTH FLUX ERROR MASK
       10224.548       3051.2230       165.16398       0
       10247.504       1443.6423       149.14146       0
       10270.460      -102.43605       140.12810       0
       10293.416       53.785341       127.52742       0
       10316.372      -1290.9188       121.54027       0
       10339.328      -224.49997       112.16188       0
       10362.284       491.59799       111.37146       0
       10385.240       296.73451       103.10693       0
       10408.196       10.459183       101.32745       0
       10431.152      -282.56590       92.902705       0
       10454.108      -13.353782       88.927585       0
       10477.064      -775.17579       78.949437       0
       10500.020       80.182781       75.638480       0
       10522.977       242.79277       67.602843       0
       10545.933       141.89007       64.288032       0
       10568.889       217.57569       58.724696       0
       10591.845       434.58089       57.009161       0
       10614.801       114.81365       52.295943       0
       10637.757       330.28251       51.463203       0
       10660.713       107.64968       41.928211       0
       10683.669       255.55325       45.809232       0
       10706.625       151.76360       40.853043       0
       10729.581       209.07933       38.799380       0
       10752.537       155.82944       34.468409       0
       10775.493       231.17424       32.591913       0
       10798.449       214.40292       29.180421       0
       10821.406       208.66368       27.938627       0
       10844.362       187.99721       25.433726       0
       10867.318       166.89924       24.777774       0
       10890.274       190.55055       23.104727       0
       10913.230       159.21246       22.828951       0
       10936.186       146.71877       21.339230       0
       10959.142       160.47457       21.388628       0
       10982.098       204.81479       20.383538       0
       11005.054       159.81458       20.063354       1
       11028.010       167.05487       18.983247       1
       11050.966       181.23612       19.038192       1
       11073.922       184.33249       18.025734       1
       11096.878       166.04988       18.103476       1
       11119.835       167.03802       17.219156       1
       11142.791       163.19056       17.468838       1
       11165.747       141.65249       16.635360       1
       11188.703       169.74769       17.094162       1
       11211.659       177.55760       16.656396       1
       11234.615       156.84446       18.923768       1
       11257.571       149.93283       16.322545       1
       11280.527       159.92012       18.762995       1
       11303.483       159.17150       16.268022       1
       11326.439       153.62576       16.545427       1
       11349.395       173.28967       16.199137       1
       11372.351       149.00262       16.346694       1
       11395.307       108.12386       14.062336       1
       11418.264       181.57222       16.444044       1
       11441.220       156.63315       15.922928       1
       11464.176       146.30954       16.139337       1
       11487.132       159.69029       15.751620       1
       11510.088       141.52444       16.101136       1
       11533.044       142.83158       15.648766       1
       11556.000       148.58543       16.050618       1
       11578.956       151.29124       15.554895       1
       11601.912       145.93560       16.015862       1
       11624.868       175.55136       15.673157       1
       11647.824       160.02214       15.896490       1
       11670.780       161.67286       15.445192       1
       11693.736       153.22052       15.687607       1
       11716.693       162.30868       15.343444       1
       11739.649       177.70293       15.747860       1
       11762.605       160.79523       15.057897       1
       11785.561       163.06911       15.487127       1
       11808.517       167.33208       15.016711       1
       11831.473       161.64572       15.316990       1
       11854.429       160.19088       14.842039       1
       11877.385       161.71393       15.188599       1
       11900.341       145.77862       14.605614       1
       11923.297       178.75695       15.247374       1
       11946.253       183.57235       14.829777       1
       11969.209       169.50636       15.050438       1
       11992.165       157.15835       14.574057       1
       12015.122       165.80824       14.950577       1
       12038.078       75.246797       10.898944       1
       12061.034       157.37027       14.708422       1
       12083.990       180.72059       14.553183       1
       12106.946       147.99852       14.586964       1
       12129.902       141.26794       14.127000       1
       12152.858       147.30926       14.569791       1
       12175.814       159.01958       14.242885       1
       12198.770       143.20970       14.484666       1
       12221.726       153.53701       14.140120       1
       12244.682       135.42590       14.320277       1
       12267.638       158.63301       14.090147       1
       12290.594       155.51150       14.446232       1
       12313.551       139.67043       13.880578       1
       12336.507       141.16694       14.227174       1
       12359.463       161.07365       13.960420       1
       12382.419       152.93779       14.292061       1
       12405.375       147.33558       13.891995       1
       12428.331       155.76943       14.270718       1
       12451.287       170.33284       13.997142       1
       12474.243       169.01581       14.270842       1
       12497.199       141.16964       13.750697       1
       12520.155       158.95071       14.184312       1
       12543.111       129.61357       13.575611       1
       12566.067       162.57614       14.239344       1
       12589.023       143.41654       13.603655       1
       12611.980       140.28267       14.046427       1
       12634.936       147.48459       13.640127       1
       12657.892       151.55269       13.997384       1
       12680.848       146.95078       13.604022       1
       12703.804       150.62723       13.977807       1
       12726.760       144.35870       13.512804       1
       12749.716       154.56716       13.857363       1
       12772.672       141.41621       13.373924       1
       12795.628       169.32377       13.960362       1
       12818.584       126.57836       13.223702       1
       12841.540       153.19890       13.766321       1
       12864.496       156.05325       13.350119       1
       12887.452       144.85411       13.584969       1
       12910.409       151.21660       13.349061       1
       12933.365       81.584510       10.140170       1
       12956.321       161.22783       13.352792       1
       12979.277       150.76467       13.503852       1
       13002.233       134.76034       13.006688       1
       13025.189       164.99328       13.566380       1
       13048.145       154.32925       13.149976       1
       13071.101       159.60592       13.530544       1
       13094.057       137.21021       12.967318       1
       13117.013       151.22651       13.383735       1
       13139.969       138.91224       12.934762       1
       13162.925       138.48144       13.159989       1
       13185.881       142.16633       12.898296       1
       13208.838       135.36768       12.996055       1
       13231.794       138.74079       12.821486       1
       13254.750       140.10551       13.003217       1
       13277.706       148.07396       12.805027       1
       13300.662       140.02697       12.967012       1
       13323.618       136.93717       12.712980       1
       13346.574       137.54403       13.025691       1
       13369.530       138.26151       12.652879       1
       13392.486       132.50295       12.964209       1
       13415.442       139.92211       12.657410       1
       13438.398       127.47151       12.857799       1
       13461.354       135.87288       12.575802       1
       13484.310       140.88083       12.948940       1
       13507.267       127.38754       12.439884       1
       13530.223       121.56813       12.723872       1
       13553.179       130.91832       12.446464       1
       13576.135       130.56785       12.771736       1
       13599.091       141.96837       12.494296       1
       13622.047       119.55460       12.648984       1
       13645.003       131.88683       12.466888       1
       13667.959       124.41326       12.565088       1
       13690.915       133.37352       12.448044       1
       13713.871       130.35726       12.642336       1
       13736.827       133.56388       12.466481       1
       13759.783       126.64675       12.695275       1
       13782.739       142.93863       12.591657       1
       13805.695       131.18701       12.746892       1
       13828.652       136.09372       12.518554       1
       13851.608       143.55774       12.892323       1
       13874.564       132.32133       12.430717       1
       13897.520       146.08622       12.861340       1
       13920.476       127.99612       12.317688       1
       13943.432       136.06251       12.788511       1
       13966.388       133.96241       12.419967       1
       13989.344       144.64119       12.792063       1
       14012.300       139.48950       12.377006       1
       14035.256       132.16496       12.576911       1
       14058.212       137.73348       12.388277       1
       14081.168       125.42057       12.502926       1
       14104.124       120.82419       12.135357       1
       14127.081       137.35487       12.516680       1
       14150.037       144.20450       12.344780       1
       14172.993       143.73982       12.628767       1
       14195.949       135.07825       12.130951       1
       14218.905       126.37583       12.421576       1
       14241.861       132.72909       12.126209       1
       14264.817       140.50459       12.509626       1
       14287.773       133.55649       12.101100       1
       14310.729       135.80648       12.395871       1
       14333.685       141.54493       12.136912       1
       14356.641       136.91858       13.137545       1
       14379.597       136.34704       12.042391       1
       14402.553       136.09134       12.321695       1
       14425.510       134.18700       12.638040       1
       14448.466       141.30610       12.437238       1
       14471.422       139.88427       13.167479       1
       14494.378       120.84470       12.225900       1
       14517.334       119.26304       11.839965       1
       14540.290       141.00867       12.354458       1
       14563.246       134.22861       12.016672       1
       14586.202       130.83554       12.156913       1
       14609.158       138.52140       12.050834       1
       14632.114       120.38031       12.173372       1
       14655.070       135.46279       12.041108       1
       14678.026       123.21372       12.192533       1
       14700.982       137.41583       12.041239       1
       14723.939       121.68156       12.138167       1
       14746.895       138.35873       12.052454       1
       14769.851       132.08179       12.242687       1
       14792.807       130.86374       12.001565       1
       14815.763       120.81227       12.142391       1
       14838.719       135.47269       11.927634       1
       14861.675       122.30215       12.135126       1
       14884.631       121.85433       11.766982       1
       14907.587       68.789278       8.4301690       1
       14930.543       117.44137       11.653143       1
       14953.499       123.13293       12.008743       1
       14976.455       117.89156       11.550653       1
       14999.411       118.44382       11.881522       1
       15022.368       118.35759       12.735267       1
       15045.324       117.00599       11.868569       1
       15068.280       154.38082       11.852586       1
       15091.236       137.83110       12.126203       1
       15114.192       121.52173       11.604687       1
       15137.148       128.34140       11.938713       1
       15160.104       128.24640       11.659447       1
       15183.060       125.45034       11.798642       1
       15206.016       137.22453       11.704865       1
       15228.972       125.05724       11.755893       1
       15251.928       131.31727       11.677864       1
       15274.884       123.41977       11.824981       1
       15297.840       138.43442       11.738931       1
       15320.797       105.87676       11.582224       1
       15343.753       124.89926       11.636113       1
       15366.709       106.85639       11.653387       1
       15389.665       128.63574       11.538230       1
       15412.621       129.18246       11.842093       1
       15435.577       129.40764       11.486320       1
       15458.533       126.81034       11.802092       1
       15481.489       127.47667       11.466567       1
       15504.445       109.99924       11.690164       1
       15527.401       130.23530       11.542801       1
       15550.357       118.06849       11.777577       1
       15573.313       130.40544       11.586308       1
       15596.269       73.215365       8.2953529       1
       15619.226       113.04974       11.434230       1
       15642.182       131.88087       11.913205       1
       15665.138       144.23978       11.710263       1
       15688.094       118.49744       11.849405       1
       15711.050       139.79280       11.640483       1
       15734.006       124.44039       11.865608       1
       15756.962       152.05698       11.819849       1
       15779.918       133.78499       11.922324       1
       15802.874       125.35247       11.392186       1
       15825.830       130.24812       11.790540       1
       15848.786       131.43899       11.501462       1
       15871.742       130.20464       11.851416       1
       15894.698       127.59078       11.530921       1
       15917.655       119.29816       11.750036       1
       15940.611       131.43439       11.539357       1
       15963.567       131.35731       11.892146       1
       15986.523       142.57306       11.708724       1
       16009.479       126.62389       11.866637       1
       16032.435       135.96503       11.651125       1
       16055.391       135.70360       11.898213       1
       16078.347       126.30585       11.529495       1
       16101.303       135.32351       11.927806       1
       16124.259       114.32588       11.430170       1
       16147.215       122.44071       11.823102       1
       16170.171       117.72756       11.488946       1
       16193.127       132.50059       11.834793       1
       16216.084       99.284228       9.9376256       1
       16239.040       123.50899       11.910696       1
       16261.996       124.24016       11.667652       1
       16284.952       133.45313       4037898.9       1
       16307.908       132.69083       11.732940       1
       16330.864       119.19505       11.889833       1
       16353.820       132.19629       11.730187       1
       16376.776       93.419014       10.458037       1
       16399.732       122.48499       11.623243       1
       16422.688       122.20698       11.905368       1
       16445.644       140.11684       11.796089       1
       16468.600       122.93198       11.966471       1
       16491.556       122.67820       11.663074       1
       16514.513       118.60306       12.044213       1
       16537.469       130.90295       11.889027       1
       16560.425       128.08457       12.387390       1
       16583.381       119.66152       12.096351       1
       16606.337       125.21943       12.762331       1
       16629.293       121.68251       12.724866       1
       16652.249       111.00602       13.356842       1
       16675.205       141.28758       13.655324       1
       16698.161       123.12727       14.491225       1
       16721.117       121.70560       14.786049       1
       16744.073       107.94398       15.858314       1
       16767.029       125.79212       16.354017       0
       16789.985       124.89705       17.955071       0
       16812.942       91.756152       18.298765       0
       16835.898       156.57139       20.377172       0
       16858.854       138.43039       20.808531       0
       16881.810       110.43792       22.588778       0
       16904.766       113.27945       23.271006       0
       16927.722       163.86570       25.452480       0
       16950.678       173.08053       26.034991       0
       16973.634       108.44755       28.067848       0
       16996.590       85.135969       28.467581       0
       17019.546       162.58979       31.269874       0
       17042.502       110.33332       31.946865       0
       17065.458       58.843485       34.484446       0
       17088.414       177.98126       35.383947       0
       17111.371       39.576267       38.304835       0
       17134.327       12.266897       38.907322       0
       17157.283       19.519465       43.058720       0
       17180.239       53.224199       44.901960       0
       17203.195       20.350839       49.822424       0
       17226.151      -253.63974       51.029701       0
       17249.107       420.75123       57.293424       0
       17272.063       175.34048       58.669995       0
       17295.019       64.119521       63.286432       0
       17317.975      -110.33395       64.622899       0
       17340.931      -471.97260       69.437054       0
       17363.887      -244.30893       70.861336       0
