#WAVELENGTH FLUX ERROR MASK
       10161.171       23409.951       3424.2992       0
       10183.656       19747.392       3125.2744       0
       10206.140       19765.689       2909.9383       0
       10228.625       14796.718       2454.6078       0
       10251.109       10797.726       2161.4068       0
       10273.593       13467.122       1851.3215       0
       10296.078       9542.2632       1633.7990       0
       10318.562       9926.7580       1417.8719       0
       10341.046       9632.9748       1315.3412       0
       10363.531       8786.0436       1166.2918       0
       10386.015       8843.0448       1112.1594       0
       10408.499       6684.3622       972.56904       0
       10430.984       6726.3244       905.06062       0
       10453.468       5905.4402       767.78951       0
       10475.952       4534.4424       666.66772       0
       10498.437       3929.5779       548.84233       0
       10520.921       4216.6432       488.15599       0
       10543.406       2984.5110       402.41732       0
       10565.890       2214.2183       356.81804       0
       10588.374       2585.2965       314.76587       0
       10610.859       2025.8454       287.10264       0
       10633.343       2138.8544       254.04695       0
       10655.827       1842.0338       235.42274       0
       10678.312       1541.2851       201.71243       0
       10700.796       1508.9046       181.56538       0
       10723.280       1134.6259       148.44389       0
       10745.765       1185.1356       128.74574       0
       10768.249       841.69218       103.88184       0
       10790.734       834.77062       90.641732       0
       10813.218       760.53567       76.059738       0
       10835.702       681.80218       67.697751       0
       10858.187       266.57338       39.060217       0
       10880.671       635.02624       58.389973       0
       10903.155       571.89594       53.532024       0
       10925.640       547.03790       49.755943       0
       10948.124       619.93157       47.628197       0
       10970.608       642.15439       45.142649       0
       10993.093       570.34156       41.948346       0
       11015.577       494.69690       38.797240       1
       11038.062       534.05190       37.151606       1
       11060.546       478.48235       34.318724       1
       11083.030       570.88955       33.487381       1
       11105.515       482.44424       31.504758       1
       11127.999       522.05851       31.083285       1
       11150.483       478.22427       29.689438       1
       11172.968       514.60857       29.879126       1
       11195.452       481.25218       28.846165       1
       11217.936       491.69282       28.735167       1
       11240.421       456.51527       28.132013       1
       11262.905       405.10651       27.420074       1
       11285.390       421.17186       27.207884       1
       11307.874       463.54423       27.643241       1
       11330.358       485.24548       27.353222       1
       11352.843       424.95391       26.865053       1
       11375.327       428.40897       26.137568       1
       11397.811       407.22791       28.290414       1
       11420.296       433.38062       26.028448       1
       11442.780       415.60093       26.050601       1
       11465.264       416.22408       25.799217       1
       11487.749       426.40546       25.500393       1
       11510.233       474.33328       26.006306       1
       11532.718       395.50738       25.267040       1
       11555.202       466.35443       25.871788       1
       11577.686       406.35319       25.256415       1
       11600.171       487.67146       25.947938       1
       11622.655       421.58506       25.219722       1
       11645.139       420.94635       24.688213       1
       11667.624       419.78791       24.961630       1
       11690.108       420.54118       24.381803       1
       11712.592       401.74513       23.933161       1
       11735.077       427.78663       23.987079       1
       11757.561       361.31320       23.126268       1
       11780.046       414.04687       23.430731       1
       11802.530       407.05043       23.149976       1
       11825.014       379.03543       22.659405       1
       11847.499       358.39817       22.549498       1
       11869.983       412.18783       22.602155       1
       11892.467       379.34410       22.267630       1
       11914.952       353.35298       21.912454       1
       11937.436       374.19562       22.143445       1
       11959.920       396.94128       22.057379       1
       11982.405       417.63602       20.842710       1
       12004.889       365.63073       20.772405       1
       12027.374       369.76075       19.781626       1
       12049.858       363.95811       20.643208       1
       12072.342       356.81107       19.738039       1
       12094.827       365.42893       20.497380       1
       12117.311       301.59066       19.285229       1
       12139.795       357.87505       20.063173       1
       12162.280       332.27154       19.190591       1
       12184.764       350.00722       19.949389       1
       12207.248       426.48824       19.942647       1
       12229.733       333.20242       19.470884       1
       12252.217       328.20405       18.878616       1
       12274.702       351.44644       19.406459       1
       12297.186       301.95580       18.365621       1
       12319.670       316.85344       18.996841       1
       12342.155       315.29763       18.443613       1
       12364.639       340.84112       19.024627       1
       12387.123       320.34554       18.424920       1
       12409.608       338.81532       18.875309       1
       12432.092       300.08170       17.889185       1
       12454.576       336.61274       18.753100       1
       12477.061       296.82001       17.564343       1
       12499.545       333.75445       18.462636       1
       12522.030       302.48803       17.535955       1
       12544.514       345.51134       18.405305       1
       12566.998       285.61446       17.359975       1
       12589.483       342.50480       18.176263       1
       12611.967       309.28406       17.662762       1
       12634.451       300.94254       17.852700       1
       12656.936       295.57285       17.576583       1
       12679.420       284.42082       17.663235       1
       12701.904       292.18193       17.311248       1
       12724.389       284.45327       17.195775       1
       12746.873       285.09896       16.925852       1
       12769.358       282.08795       17.294077       1
       12791.842       264.15121       16.681307       1
       12814.326       299.54636       17.342172       1
       12836.811       277.77541       16.703697       1
       12859.295       293.76650       17.080066       1
       12881.779       285.31436       16.524700       1
       12904.264       284.77704       16.889830       1
       12926.748       261.30392       16.290674       1
       12949.232       272.08296       16.554396       1
       12971.717       262.55840       16.126827       1
       12994.201       285.85741       16.660596       1
       13016.686       262.80605       15.909471       1
       13039.170       291.23609       16.573320       1
       13061.654       262.16864       15.807588       1
       13084.139       306.57799       16.533903       1
       13106.623       267.99657       14.832687       1
       13129.107       312.56251       15.908466       1
       13151.592       305.55953       14.848932       1
       13174.076       303.48248       15.777358       1
       13196.560      -5.0987394       0.0000000       1
       13219.045       335.70257       15.888546       1
       13241.529       318.40311       14.686794       1
       13264.013       328.17127       15.760207       1
       13286.498       335.26600       14.783439       1
       13308.982       320.46656       15.335965       1
       13331.467       344.44848       14.878348       1
       13353.951       347.62772       15.661464       1
       13376.435       317.15981       14.581715       1
       13398.920       307.26852       15.362918       1
       13421.404       308.88184       14.435084       1
       13443.888       320.51066       15.205938       1
       13466.373       323.41850       14.408053       1
       13488.857       299.75353       15.036222       1
       13511.341       342.22326       14.777944       1
       13533.826       331.36740       15.281597       1
       13556.310       326.52570       14.152879       1
       13578.795       350.54605       15.358910       1
       13601.279       340.96877       14.789673       1
       13623.763       367.14999       15.500630       1
       13646.248       400.26086       15.114442       1
       13668.732       415.13620       16.155742       1
       13691.216       417.79078       15.108370       1
       13713.701       434.42432       16.298630       1
       13736.185       426.01392       15.095529       1
       13758.669       404.36768       16.037713       1
       13781.154       341.67162       14.647177       1
       13803.638       324.30318       15.156818       1
       13826.123       318.40349       14.249090       1
       13848.607       321.93305       15.099210       1
       13871.091       323.34664       14.156161       1
       13893.576       301.45238       14.909824       1
       13916.060       338.84747       14.526835       1
       13938.544       346.39825       15.248586       1
       13961.029       321.85827       14.100474       1
       13983.513       352.36301       15.231045       1
       14005.997       350.21225       14.560343       1
       14028.482       342.30537       14.998452       1
       14050.966       367.03152       14.455878       1
       14073.451       351.90724       14.954345       1
       14095.935       347.62768       14.323365       1
       14118.419       297.81136       14.143416       1
       14140.904       297.83466       13.553685       1
       14163.388       290.15485       14.359195       1
       14185.872       297.63509       13.523529       1
       14208.357       265.92231       14.076391       1
       14230.841       263.75233       14.053867       1
       14253.325       258.56246       14.381448       1
       14275.810       264.29392       13.951438       1
       14298.294       255.47511       14.231168       1
       14320.779       249.46259       13.817288       1
       14343.263       249.06918       14.094459       1
       14365.747       247.48513       13.640555       1
       14388.232       245.43073       14.028387       1
       14410.716       256.55303       13.691959       1
       14433.200       250.22162       14.080253       1
       14455.685       255.56608       13.675545       1
       14478.169       252.69620       13.984230       1
       14500.653       255.74190       13.779623       1
       14523.138       255.45537       14.097317       1
       14545.622       248.34147       13.533865       1
       14568.107       248.02861       13.963138       1
       14590.591       264.96084       13.693202       1
       14613.075       256.59819       14.033533       1
       14635.560       242.42575       13.528646       1
       14658.044       237.15471       13.961832       1
       14680.528       254.22053       13.666805       1
       14703.013       251.71868       14.028094       1
       14725.497       247.96441       13.608444       1
       14747.981       239.52080       14.034993       1
       14770.466       240.35484       13.637827       1
       14792.950       233.38080       13.872266       1
       14815.435       254.42341       13.749866       1
       14837.919       223.43656       13.810593       1
       14860.403       137.54988       10.351565       1
       14882.888       232.36807       13.760863       1
       14905.372       223.37331       13.229040       1
       14927.856       242.67208       13.655266       1
       14950.341       235.14167       5982404.7       1
       14972.825       229.75533       13.545506       1
       14995.309       219.51918       13.142652       1
       15017.794       225.72893       13.479624       1
       15040.278       228.15985       13.129344       1
       15062.763       250.04852       13.715057       1
       15085.247       246.57107       13.382429       1
       15107.731       249.92432       13.649674       1
       15130.216       236.57993       13.139979       1
       15152.700       242.58420       13.465569       1
       15175.184       252.69853       13.276434       1
       15197.669       225.48216       13.409456       1
       15220.153       246.79282       13.107045       1
       15242.637       240.28900       13.502704       1
       15265.122       213.17291       12.932244       1
       15287.606       251.88506       13.641094       1
       15310.091       240.22119       13.241662       1
       15332.575       245.40047       13.540858       1
       15355.059       260.10161       14.198027       1
       15377.544       258.54593       14.082472       1
       15400.028       241.75532       14.010390       1
       15422.512       241.53016       14.028578       1
       15444.997       244.50563       14.093287       1
       15467.481       232.28433       13.949445       1
       15489.965       244.95189       14.067991       1
       15512.450       222.66771       13.817281       1
       15534.934       235.93198       14.019561       1
       15557.419       252.13303       14.248546       1
       15579.903       249.10725       14.168052       1
       15602.387       257.22711       14.214396       1
       15624.872       242.03644       14.057999       1
       15647.356       262.75378       14.257819       1
       15669.840       268.41558       14.286059       1
       15692.325       248.40948       13.935352       1
       15714.809       284.08042       14.138879       1
       15737.293       254.39790       13.993886       1
       15759.778       244.56519       13.776618       1
       15782.262       243.07397       13.838163       1
       15804.747       313.00752       14.485287       1
       15827.231       236.00548       13.862689       1
       15849.715       306.71953       14.391094       1
       15872.200       261.71241       14.079205       1
       15894.684       250.98374       14.036679       1
       15917.168       237.74270       13.843981       1
       15939.653       215.75074       13.782093       1
       15962.137       228.14347       13.794372       1
       15984.621       216.62652       13.758221       1
       16007.106       221.97101       13.765090       1
       16029.590       218.08782       13.841890       1
       16052.074       221.96688       13.731479       1
       16074.559       208.58432       13.729121       1
       16097.043       242.64771       13.995211       1
       16119.528       234.42081       14.059965       1
       16142.012       233.94561       13.965361       1
       16164.496       1.2313628       0.0000000       1
       16186.981       235.75036       14.105757       1
       16209.465       238.66811       14.195390       1
       16231.949       238.23513       14.247412       1
       16254.434       232.73155       14.224559       1
       16276.918       231.92789       14.253297       1
       16299.402       239.43345       14.324100       1
       16321.887       213.83142       14.004785       1
       16344.371       254.45315       14.569650       1
       16366.856       231.29770       14.382663       1
       16389.340       229.24849       14.403024       1
       16411.824       205.87169       14.194648       1
       16434.309       254.20514       14.608107       1
       16456.793       214.90297       13.931076       1
       16479.277       203.61515       13.551925       1
       16501.762       216.70053       14.220848       1
       16524.246       217.93048       14.186557       1
       16546.730       218.03111       14.858542       1
       16569.215       211.53442       15.092507       1
       16591.699       230.45581       16.307178       1
       16614.184       219.40887       16.753411       1
       16636.668       219.65364       18.377600       1
       16659.152       205.82702       18.952986       1
       16681.637       97.969570       14.580580       1
       16704.121       221.42507       22.694918       1
       16726.605       217.91311       26.460487       1
       16749.090       195.97192       28.594276       1
       16771.574       195.81029       33.276724       0
       16794.058       201.45875       36.659370       0
       16816.543       223.48985       42.831431       0
       16839.027       208.76382       46.383903       0
       16861.512       277.48885       53.981031       0
       16883.996       126.29470       56.957557       0
       16906.480       353.63210       67.224760       0
       16928.965       249.08070       71.354959       0
       16951.449       259.15602       81.102803       0
       16973.933       242.35616       88.051488       0
       16996.418       268.77540       100.03229       0
       17018.902       138.82925       107.50966       0
       17041.386       252.88943       122.82923       0
       17063.871       250.07641       132.82642       0
       17086.355       198.65155       151.31521       0
       17108.840       97.717593       162.93022       0
       17131.324       397.60588       194.60642       0
       17153.808       13.048584       211.94345       0
