#WAVELENGTH FLUX ERROR MASK
       7543.7762       6849.4352       9235.3582       0
       7555.9709      -7576.0926       9097.6292       0
       7568.1656       385.05310       5780.4372       0
       7580.3603       4431.3362       5772.5216       0
       7592.5549       197.26013       3746.3691       0
       7604.7496       2147.5215       3937.1128       0
       7616.9443       346.76848       2653.2604       0
       7629.1390      -672.95060       2852.0010       0
       7641.3337      -1211.3333       1951.9716       0
       7653.5283       575.38090       2133.2881       0
       7665.7230      -631.96741       1703.3484       0
       7677.9177      -814.31286       1477.2716       0
       7690.1124       784.94307       994.67438       0
       7702.3070      -138.33382       1037.1159       0
       7714.5017       1221.6812       725.80207       0
       7726.6964       368.35308       788.84443       0
       7738.8911       809.91297       623.54440       0
       7751.0857       243.22279   2.5055336e+08       0
       7763.2804      -57.288579       505.16957       0
       7775.4751       104.06015       547.87709       0
       7787.6698       221.46247       506.72482       0
       7799.8644       117.61257       451.98443       0
       7812.0591       154.34633       350.78360       0
       7824.2538       184.77281       368.44363       0
       7836.4485       274.40789       266.13860       0
       7848.6431       58.650392       297.71187       0
       7860.8378       277.95068       217.06441       0
       7873.0325       176.19625       247.41435       0
       7885.2272       247.72423       182.63739       0
       7897.4218       164.53706       183.14217       0
       7909.6165       253.74885       161.38504       0
       7921.8112       178.36683       162.76386       0
       7934.0059       234.73665       144.79352       0
       7946.2006       179.39733       147.32556       0
       7958.3952       129.58009       131.45202       0
       7970.5899       409.12944       160.52014       0
       7982.7846       287.78011       122.68321       0
       7994.9793       366.14037       148.60979       0
       8007.1739       136.58749       136.23998       0
       8019.3686       288.82195       138.83517       0
       8031.5633       292.16480       108.12667       0
       8043.7580       313.16131       50563737.       0
       8055.9526       262.37052       109.48480       0
       8068.1473       242.30516       127.60684       0
       8080.3420       289.26460       100.20388       0
       8092.5367       296.30197       123.38612       0
       8104.7313       313.96484       97.322995       0
       8116.9260       245.80222       118.86968       0
       8129.1207       271.52357       93.331324       0
       8141.3154       212.58531       114.43679       0
       8153.5100       311.64394       101.22104       1
       8165.7047       333.26322       111.57540       1
       8177.8994       310.21694       87.720557       1
       8190.0941       344.90208       107.56435       1
       8202.2887       233.06650       123.95799       1
       8214.4834       358.79229       103.51967       1
       8226.6781       301.81441       80.237401       1
       8238.8728       92.021122       96.056575       1
       8251.0675       384.14550       77.004919       1
       8263.2621       248.90670       93.013049       1
       8275.4568       167.30786       71.541493       1
       8287.6515       274.57985       117.36592       1
       8299.8462       267.96939       69.363736       1
       8312.0408       290.71793       85.575578       1
       8324.2355       322.13979       66.945625       1
       8336.4302       211.20048       82.028288       1
       8348.6249       223.81113       64.620546       1
       8360.8195       323.04087       80.983643       1
       8373.0142       317.47228       63.620387       1
       8385.2089       262.18594       78.187911       1
       8397.4036       329.18613       62.022470       1
       8409.5982       387.09608       77.311554       1
       8421.7929       320.42350       60.336196       1
       8433.9876       237.92949       73.749790       1
       8446.1823       300.36854       58.237356       1
       8458.3769       356.44047       72.287242       1
       8470.5716       331.89558       56.832778       1
       8482.7663       252.82277       69.631480       1
       8494.9610       300.09589       55.125370       1
       8507.1556       256.61510       67.945905       1
       8519.3503       353.77164       54.421626       1
       8531.5450       209.71790       66.204264       1
       8543.7397       244.19938       52.810547       1
       8555.9343       257.81003       66.043630       1
       8568.1290       228.46734       62.858889       1
       8580.3237       242.39242       65.232467       1
       8592.5184       273.59831       52.030999       1
       8604.7131       292.02335       65.172777       1
       8616.9077       248.74769       55.128049       1
       8629.1024       297.83496       64.943924       1
       8641.2971       266.68433       67.223279       1
       8653.4918       313.78505       63.848239       1
       8665.6864       260.83728       50.154929       1
       8677.8811       288.00995       62.214121       1
       8690.0758       277.31956       48.823070       1
       8702.2705       311.69684       60.265575       1
       8714.4651       243.02447       46.844366       1
       8726.6598       247.44155       57.684391       1
       8738.8545       256.52991       45.315530       1
       8751.0492       270.77548       56.056291       1
       8763.2438       289.77025       44.537158       1
       8775.4385       259.71066       54.958361       1
       8787.6332       266.79951       43.647175       1
       8799.8279       303.78067       54.662548       1
       8812.0225       274.21943       43.019240       1
       8824.2172       305.56174       54.963766       1
       8836.4119       271.22427       44.359445       1
       8848.6066       207.67724       46.275975       1
       8860.8012       252.39229       43.323947       1
       8872.9959       303.01355       51.258730       1
       8885.1906       253.42039       42.690247       1
       8897.3853       150.58445       42.141662       1
       8909.5800       250.47888       39.708631       1
       8921.7746       282.66682       49.506339       1
       8933.9693       300.81515       39.206480       1
       8946.1640       256.28669       48.275555       1
       8958.3587       272.22744       38.327550       1
       8970.5533       253.55164       47.499834       1
       8982.7480       261.75226       37.583576       1
       8994.9427       233.23523       46.833061       1
       9007.1374       271.80594       37.327502       1
       9019.3320       253.83496       46.509417       1
       9031.5267       244.18997       39.062195       1
       9043.7214       274.62069       46.400878       1
       9055.9161       216.01308       36.388499       1
       9068.1107       258.82413       45.490768       1
       9080.3054       194.95747       35.631091       1
       9092.5001       233.68221       44.773944       1
       9104.6948       267.13039       35.424641       1
       9116.8894       300.85345       44.199309       1
       9129.0841       288.48558       34.847260       1
       9141.2788       272.73996       43.276560       1
       9153.4735       209.66612       33.628903       1
       9165.6681       252.45438       42.135825       1
       9177.8628       256.98892       33.458949       1
       9190.0575       272.02027       41.827241       1
       9202.2522       216.59671       32.623790       1
       9214.4469       287.70311       41.312701       1
       9226.6415       293.69891       32.617054       1
       9238.8362       320.07430       40.848712       1
       9251.0309       253.51530       32.152110       1
       9263.2256       260.67183       40.112311       1
       9275.4202       271.29367       31.712882       1
       9287.6149       257.28734       39.642764       1
       9299.8096       253.84567       31.331882       1
       9312.0043       145.02731       26.581239       1
       9324.1989       295.13740       31.356249       1
       9336.3936       265.02832       38.964881       1
       9348.5883       257.40042       30.894224       1
       9360.7830       275.98940       38.604224       1
       9372.9776       292.72212       30.860243       1
       9385.1723       113.21655       28.333442       1
       9397.3670       261.24758       30.181689       1
       9409.5617       296.80592       37.625762       1
       9421.7563       247.39800       29.558935       1
       9433.9510       297.78201       37.384911       1
       9446.1457       242.83140       29.191844       1
       9458.3404       308.53659       37.164073       1
       9470.5350       266.49257       29.269445       1
       9482.7297       298.25066       36.849084       1
       9494.9244       294.48904       28.975276       1
       9507.1191       270.94985       36.051251       1
       9519.3138       297.06291       30.599407       1
       9531.5084       270.24114       35.774834       1
       9543.7031       284.06577       30.156735       1
       9555.8978       254.68334       35.217365       1
       9568.0925       258.67150       35.189618       1
       9580.2871       244.33797       34.767076       1
       9592.4818       298.05380       27.925902       1
       9604.6765       266.58084       34.535694       1
       9616.8712       252.87488       29.065521       1
       9629.0658       307.22365       34.803366       1
       9641.2605       286.72520       27.482349       1
       9653.4552       313.62600       34.575703       1
       9665.6499       281.81265       27.326070       1
       9677.8445       287.78487       34.100226       1
       9690.0392       296.22145       27.155669       1
       9702.2339       309.63999       33.929766       1
       9714.4286       314.48644       27.006504       1
       9726.6232       317.76548       33.657177       1
       9738.8179       280.50561       26.442277       1
       9751.0126       303.11298       33.273824       1
       9763.2073       290.89848       26.297143       1
       9775.4019       293.24382       32.942274       1
       9787.5966       307.04032       26.227718       1
       9799.7913       286.65534       33.612195       1
       9811.9860       289.48380       26.029387       1
       9824.1807       287.31766       32.571967       1
       9836.3753       283.06153       25.869266       1
       9848.5700       289.14765       32.491805       1
       9860.7647       276.52490       25.850995       1
       9872.9594       328.87470       32.582366       1
       9885.1540       290.17088       25.727190       1
       9897.3487       264.88299       31.864010       1
       9909.5434       292.25186       25.584785       1
       9921.7381       319.58936       32.192865       1
       9933.9327       284.05805       25.297530       1
       9946.1274       272.40497       31.323348       1
       9958.3221       289.96785       26.385571       1
       9970.5168       276.58495       30.960512       1
       9982.7114       266.30460       24.516775       1
       9994.9061       295.81859       30.730334       1
       10007.101       241.37694       24.190242       1
       10019.295       246.81892       30.338146       1
       10031.490       273.74487       24.363907       1
       10043.685       259.28324       30.359543       1
       10055.879       255.54755       24.159237       1
       10068.074       259.08878       30.126728       1
       10080.269       269.95719       24.280674       1
       10092.464       259.34430       30.162672       1
       10104.658       260.54970       24.150856       1
       10116.853       254.86749       30.119776       1
       10129.048       249.51372       23.736990       1
       10141.242       220.39868       29.476654       1
       10153.437       273.46440       23.723728       1
       10165.632       230.41643       29.393319       1
       10177.826       278.63120       23.708863       1
       10190.021       274.08987       29.623166       1
       10202.216       267.10750       23.358120       1
       10214.410       290.44603       29.394811       1
       10226.605       265.59237       23.104704       1
       10238.800       280.24254       28.862098       1
       10250.994       284.68568       22.924583       1
       10263.189       295.55226       28.753163       1
       10275.384       331.44313       25.936840       1
       10287.578       328.69750       29.329599       1
       10299.773       321.05651       25.570143       1
       10311.968       294.11839       28.957018       1
       10324.162       275.85585       33.072680       1
       10336.357       292.08247       28.532087       1
       10348.552       313.15128       22.781784       1
       10360.746       310.15641       28.376114       1
       10372.941       361.14464       23.043485       1
       10385.136       333.30736       28.596906       1
       10397.330       388.82457       23.120608       1
       10409.525       307.92066       28.298720       1
       10421.720       323.73960       22.556626       1
       10433.914       266.86803       27.864042       1
       10446.109       277.08992       22.595896       1
       10458.304       263.56784       27.795051       1
       10470.498       256.44782       22.156468       1
       10482.693       243.55875       27.677954       1
       10494.888       273.11375       22.300082       1
       10507.083       263.68219       27.790420       1
       10519.277       266.58946       22.248329       1
       10531.472       222.28693       24.767888       1
       10543.667       255.48083       22.116492       1
       10555.861       248.83942       27.484982       1
       10568.056       273.78076       27.974299       1
       10580.251       242.69395       27.130152       1
       10592.445       241.35843       21.646849       1
       10604.640       252.28380       27.076269       1
       10616.835       242.37102       21.428155       1
       10629.029       244.88362       26.763980       1
       10641.224       251.05992       21.428866       1
       10653.419       217.11664       26.368922       1
       10665.613       252.75993       21.349264       1
       10677.808       249.06677       26.732876       1
       10690.003       243.79487       21.258592       1
       10702.197       262.69940       26.484726       1
       10714.392       229.79199       21.119437       1
       10726.587       238.24788       26.498419       1
       10738.781       234.03657       21.084340       1
       10750.976       238.69449       26.451943       1
       10763.171       264.62184       21.309497       1
       10775.365       202.53083       23.361597       1
       10787.560       262.62056       21.150049       1
       10799.755       262.69408       26.491073       1
       10811.949       233.61122       20.873532       1
       10824.144       238.66247       26.041895       1
       10836.339       221.84549       20.637742       1
       10848.533       258.96092       26.145427       1
       10860.728       245.44017       20.761826       1
       10872.923       267.91859       26.180942       1
       10885.117       241.12930       20.699217       1
       10897.312       233.72987       25.912652       1
       10909.507       235.90073       20.671041       1
       10921.701       279.69377       26.202996       1
       10933.896       249.06943       20.790122       1
       10946.091       252.01262       26.039121       1
       10958.286       240.22798       20.703425       1
       10970.480       278.33291       26.279091       1
       10982.675       239.02640       20.489919       1
       10994.870       281.55850       26.127731       1
       11007.064       243.60016       20.670912       1
       11019.259       258.98773       25.965727       1
       11031.454       249.08310       20.689635       1
       11043.648       276.97972       26.186591       1
       11055.843       219.71714       20.521655       1
       11068.038       260.56008       25.976270       1
       11080.232       224.96878       20.571169       1
       11092.427       237.04578       25.772909       1
       11104.622       235.39660       20.631031       1
       11116.816       262.90735       25.999915       1
       11129.011       256.88972       20.749115       1
       11141.206       231.16528       25.805898       1
       11153.400       245.13691       21.232571       1
       11165.595       245.26503       25.797970       1
       11177.790       257.61624       20.733758       1
       11189.984       254.77605       26.014028       1
       11202.179       271.66372       20.815275       0
       11214.374       263.63465       25.965578       0
       11226.568       238.87416       20.606089       0
       11238.763       239.35447       25.809258       0
       11250.958       236.77083       23.270670       0
       11263.152       252.03551       26.195370       0
       11275.347       254.04294       24.238334       0
       11287.542       262.76178       27.741354       0
       11299.736       260.57115       23.228289       0
       11311.931       291.27973       31.080334       0
       11324.126       243.40045       26.573164       0
       11336.320       256.32572       36.530860       0
       11348.515       265.20210       32.575276       0
       11360.710       235.71455       45.460056       0
       11372.905       288.75630       41.757331       0
       11385.099       274.44841       59.306637       0
       11397.294       295.01092       53.725772       0
       11409.489       248.60970       75.334895       0
       11421.683       285.41420       67.002824       0
       11433.878       248.05547       92.826967       0
       11446.073       238.48705       82.153360       0
       11458.267       209.95782       115.74539       0
       11470.462       356.49785       107.21132       0
       11482.657       195.93845       156.62220       0
       11494.851       354.36968       152.01807       0
       11507.046       420.00167       234.16165       0
       11519.241       497.73798       234.15847       0
       11531.435       309.98865       311.10586       0
       11543.630       328.80196       361.55217       0
       11555.825       922.35244       560.81967       0
       11568.019       620.29017       544.58371       0
       11580.214       865.28883       975.11957       0
       11592.409       316.17536       827.05417       0
       11604.603       996.27300       1371.0701       0
       11616.798       858.07314       1426.0958       0
       11628.993      -381.86000       2342.0177       0
       11641.187       1398.6067       2498.8364       0
       11653.382       1558.4633       4040.4396       0
       11665.577       2293.3314       3688.1779       0
       11677.771      -2065.4898       4800.0509       0
       11689.966       2758.4297       4075.3137       0
       11702.161      -1262.7385       4661.2884       0
       11714.355       4163.2602       3845.5728       0
       11726.550      -1520.9012       4587.2870       0
       11738.745      -3529.3132       3901.0272       0
       11750.939       6986.7690       5520.4464       0
       11763.134      -433.78014       5140.9920       0
       11775.329       5864.3357       7626.3081       0
       11787.523       6719.1686       7815.5899       0
       11799.718       7387.1998       9202.1595       0
       11811.913      -5625.7514       9796.9276       0
       11824.108       13210.593       14242.911       0
       11836.302      -4268.3824       13094.121       0
       11848.497       9394.5986       20420.154       0
       11860.692       29804.799       20405.206       0
       11872.886      -8705.2365       30162.373       0
       11885.081       34863.079       28083.236       0
       11897.276       948.33009       38140.856       0
       11909.470       5461.2696       31074.037       0
       11921.665       58594.641       38650.813       0
