#WAVELENGTH FLUX ERROR MASK
       7496.9478      -1958.2306       18952.815       0
       7509.0949       7713.5368       19889.154       0
       7521.2421      -4951.6935       13476.655       0
       7533.3892      -1148.3629       14328.387       0
       7545.5364       3021.2608       9346.8490       0
       7557.6836      -2961.0754       8636.6987       0
       7569.8307       2640.1564       5816.1288       0
       7581.9779       2358.9622       5807.5764       0
       7594.1251      -856.05610       3788.7405       0
       7606.2722       414.05558       3960.7978       0
       7618.4194       532.32544       2695.6024       0
       7630.5665       554.76431       2913.8201       0
       7642.7137       1451.3523       2010.3945       0
       7654.8609       480.96957       2164.3537       0
       7667.0080       718.65708       1455.2109       0
       7679.1552       285.95356       1519.3744       0
       7691.3024       281.43731       1011.3474       0
       7703.4495       386.08100       1067.7923       0
       7715.5967       301.56450       733.28748       0
       7727.7438       722.37655       817.18588       0
       7739.8910       165.19261       580.53961       0
       7752.0382      -77.009547       663.30930       0
       7764.1853       479.20677       491.72555       0
       7776.3325     0.067175773       565.17025       0
       7788.4797       346.99186       416.29720       0
       7800.6268      -117.73434       436.80823       0
       7812.7740       153.07825       340.42812       0
       7824.9211      -32.648414       379.75056       0
       7837.0683       122.29106       274.73403       0
       7849.2155       200.03301       310.05567       0
       7861.3626       81.452864       223.92286       0
       7873.5098      -65.391337       255.15254       0
       7885.6570       132.75063       189.48639       0
       7897.8041       169.66317       222.45642       0
       7909.9513       19.787741       166.06200       0
       7922.0984       71.062935       167.85305       0
       7934.2456       114.66842       149.99778       0
       7946.3928       98.550494       178.63862       0
       7958.5399       115.22672       136.85750       0
       7970.6871       67.221183       163.60673       0
       7982.8343       81.744853       146.59701       0
       7994.9814       127.64727       152.44198       0
       8007.1286       50.939346       117.71800       0
       8019.2757       54.329661       131.85669       0
       8031.4229       59.915720       111.76810       0
       8043.5701       13.279944       116.93581       0
       8055.7172      -12.310718       106.31660       0
       8067.8644       29.070593       131.13113       0
       8080.0116       130.54109       103.77820       0
       8092.1587       58.874873       126.97777       0
       8104.3059       92.603277       103.62094       0
       8116.4530       40.097891       122.84807       0
       8128.6002       40.556401       110.93589       0
       8140.7474       21.346786       117.77561       0
       8152.8945       82.464195       93.131182       1
       8165.0417       6.4973429       114.40142       1
       8177.1889       83.962265       89.656855       1
       8189.3360       91.827587       110.90690       1
       8201.4832       129.22093       89.839822       1
       8213.6304       20.221603       106.08450       1
       8225.7775       30.654206       82.333237       1
       8237.9247      -14.752062       99.838474       1
       8250.0718       101.94568       78.733645       1
       8262.2190       82.850080       104.60392       1
       8274.3662       50.687240       73.545603       1
       8286.5133       28.626067       89.683195       1
       8298.6605       66.592721       72.919194       1
       8310.8077       34.416256       87.557757       1
       8322.9548       52.066244       69.653194       1
       8335.1020       91.900769       78.335744       1
       8347.2491       71.964331       65.926693       1
       8359.3963       87.720562       82.443105       1
       8371.5435       63.698699       64.044481       1
       8383.6906       66.993611       78.668629       1
       8395.8378       19.659323       62.292604       1
       8407.9850       91.877344       77.265723       1
       8420.1321       35.774297       62.545430       1
       8432.2793       13.851476       74.086839       1
       8444.4264       30.462701       60.790668       1
       8456.5736       65.245074       72.343064       1
       8468.7208       44.501025       56.808272       1
       8480.8679       79.101723       70.635278       1
       8493.0151       60.025606       55.549346       1
       8505.1623       37.861083       69.062671       1
       8517.3094       31.660663       54.430171       1
       8529.4566       54.498641       67.984919       1
       8541.6037       89.636017       54.015368       1
       8553.7509       64.249947       66.590875       1
       8565.8981       57.467234       54.522516       1
       8578.0452       41.136029       66.221422       1
       8590.1924       78.113064       53.163714       1
       8602.3396       61.095603       65.913697       1
       8614.4867       52.490939       52.432253       1
       8626.6339       77.285223       65.311072       1
       8638.7810       89.030220       53.764567       1
       8650.9282       60.115895       64.380185       1
       8663.0754       69.981450       54.337318       1
       8675.2225       70.112388       63.132364       1
       8687.3697       55.338854       56.544927       1
       8699.5169       89.161679       61.306942       1
       8711.6640       64.093531       47.828691       1
       8723.8112       62.742074       59.076402       1
       8735.9583       40.858950       46.095213       1
       8748.1055       77.144212       57.042452       1
       8760.2527       37.987021       44.835259       1
       8772.3998       57.649068       55.602893       1
       8784.5470       52.548527       44.100251       1
       8796.6942       48.096065       54.486120       1
       8808.8413       75.804777       49.524683       1
       8820.9885       131.61802       54.248341       1
       8833.1356       31.938704       42.190846       1
       8845.2828       13.187777       49.137547       1
       8857.4300       46.868625       47.269202       1
       8869.5771       71.068167       51.279485       1
       8881.7243       32.726451       40.422911       1
       8893.8715       71.067847       50.570435       1
       8906.0186       35.307125       39.888747       1
       8918.1658       64.737462       49.992025       1
       8930.3129       41.283365       39.275168       1
       8942.4601       60.401535       49.007029       1
       8954.6073       49.132515       38.527304       1
       8966.7544       34.298791       47.633901       1
       8978.9016       91.043976       37.888129       1
       8991.0488       53.333609       46.668319       1
       9003.1959       68.126414       37.482973       1
       9015.3431       62.328165       46.198835       1
       9027.4902       44.017225       37.471313       1
       9039.6374       80.039205       45.965057       1
       9051.7846       63.464923       36.992504       1
       9063.9317       53.404600       45.352153       1
       9076.0789       65.832458       36.228205       1
       9088.2261       80.663531       45.010363       1
       9100.3732       74.397456       35.761115       1
       9112.5204       48.454529       43.752795       1
       9124.6675       80.978572       34.818571       1
       9136.8147       54.315305       43.094216       1
       9148.9619       64.296547       34.134667       1
       9161.1090       65.393411       42.438299       1
       9173.2562       67.384009       33.493112       1
       9185.4034       51.593911       41.306511       1
       9197.5505       44.552906       32.757404       1
       9209.6977       76.725553       41.348599       1
       9221.8448       60.403760       32.705506       1
       9233.9920       66.883981       40.847310       1
       9246.1392       59.981524       32.288840       1
       9258.2863       48.277338       40.336975       1
       9270.4335       63.692314       31.803073       1
       9282.5807       70.332789       40.024193       1
       9294.7278       81.355960       35.748394       1
       9306.8750       77.835589       41.948297       1
       9319.0221       65.870905       31.253160       1
       9331.1693       52.682427       39.234506       1
       9343.3165       69.351141       31.026337       1
       9355.4636       35.349134       38.934439       1
       9367.6108       66.410987       30.709620       1
       9379.7580       64.153422       38.987139       1
       9391.9051       77.809223       30.593657       1
       9404.0523       86.300233       40.190740       1
       9416.1994       74.830583       30.114707       1
       9428.3466       54.679666       41.272094       1
       9440.4938       66.952905       29.728150       1
       9452.6409       85.049413       40.689259       1
       9464.7881       91.377314       29.315881       1
       9476.9353       100.64965       38.641830       1
       9489.0824       90.743871       28.919865       1
       9501.2296       93.691168       36.141249       1
       9513.3768       83.323010       28.758622       1
       9525.5239       95.799867       39.142744       1
       9537.6711       64.184282       28.295557       1
       9549.8182       108.97704       35.587423       1
       9561.9654       81.761363       31.233106       1
       9574.1126       83.765536       40.784025       1
       9586.2597       70.375604       31.623083       1
       9598.4069       101.24027       9158816.0       1
       9610.5541       84.790668       27.443305       1
       9622.7012       41.844893       33.382346       1
       9634.8484       82.234282       27.211941       1
       9646.9955       81.538618       37.115761       1
       9659.1427       64.235732       27.879630       1
       9671.2899       76.063554       33.530253       1
       9683.4370       84.334566       29.840472       1
       9695.5842       61.687311       33.360616       1
       9707.7314       84.554818       29.647036       1
       9719.8785       63.668901       35.036471       1
       9732.0257       56.155528       29.010600       1
       9744.1728       103.32855       34.707852       1
       9756.3200       79.996839       26.049261       1
       9768.4672       54.412920       30.652609       1
       9780.6143       74.267477       26.435842       1
       9792.7615       90.293657       32.401793       1
       9804.9087       71.924437       26.398372       1
       9817.0558       90.431759       32.195595       1
       9829.2030       74.635103       25.607046       1
       9841.3501       79.671157       32.054491       1
       9853.4973       91.402918       25.500998       1
       9865.6445       67.264476       31.921452       1
       9877.7916       64.532321       25.358958       1
       9889.9388       67.843358       31.656875       1
       9902.0860       76.877725       25.248709       1
       9914.2331       66.023432       31.796912       1
       9926.3803       63.644962       25.230222       1
       9938.5274       79.021051       32.222272       1
       9950.6746       61.801811       25.095146       1
       9962.8218       88.318377       31.353905       1
       9974.9689       73.764477       24.735616       1
       9987.1161       55.902470       30.611548       1
       9999.2633       75.954108       24.366949       1
       10011.410       98.430770       30.398491       1
       10023.558       89.578651       28.185548       1
       10035.705       75.972767       33.192343       1
       10047.852       73.201453       24.035857       1
       10059.999       67.709337       29.887842       1
       10072.146       72.935390       24.799634       1
       10084.293       40.233052       27.966442       1
       10096.441       69.624565       23.756047       1
       10108.588       68.599795       29.962076       1
       10120.735       83.895889       27.507500       1
       10132.882       78.122976       29.951246       1
       10145.029       75.680147       23.750527       1
       10157.176       75.741502       29.095356       1
       10169.324       65.185819       23.173108       1
       10181.471       76.734457       28.913744       1
       10193.618       80.590876       24.018422       1
       10205.765       62.047034       28.485715       1
       10217.912       74.293079       22.982231       1
       10230.059       65.519887       28.344339       1
       10242.207       89.229683       22.835423       1
       10254.354       69.084307       27.836486       1
       10266.501       73.989857       22.416961       1
       10278.648       89.816163       27.853400       1
       10290.795       80.130979       22.135559       1
       10302.942       80.880066       27.680686       1
       10315.089       79.370043       21.994136       1
       10327.237       75.363677       27.395597       1
       10339.384       73.918886       21.661514       1
       10351.531       68.406149       27.017400       1
       10363.678       78.996840       21.833525       1
       10375.825       64.188259       27.158357       1
       10387.972       69.389746       24.609672       1
       10400.120       90.920443       27.532697       1
       10412.267       85.427809       21.851529       1
       10424.414       65.730334       27.227456       1
       10436.561       88.796114       21.501866       1
       10448.708       82.007980       27.182304       1
       10460.855       75.754563       21.664620       1
       10473.003       81.985619       27.149322       1
       10485.150       89.125218       21.912952       1
       10497.297       71.022820       27.055690       1
       10509.444       94.788248       21.774581       1
       10521.591       72.162334       27.065457       1
       10533.738       83.035329       21.684917       1
       10545.886       75.342554       27.092916       1
       10558.033       88.200572       22.330144       1
       10570.180       81.317814       27.074189       1
       10582.327       94.012732       21.680786       1
       10594.474       81.265218       27.066078       1
       10606.621       78.276635       21.463807       1
       10618.769       70.813447       25.186518       1
       10630.916       94.017597       21.279090       1
       10643.063       75.319321       26.359744       1
       10655.210       73.533463       20.975873       1
       10667.357       79.201930       26.161889       1
       10679.504       74.910475       20.821019       1
       10691.652       67.893614       25.907795       1
       10703.799       85.529844       20.867663       1
       10715.946       95.364679       26.209659       1
       10728.093       100.38468       20.891343       1
       10740.240       83.855671       25.959448       1
       10752.387       80.580518       20.677354       1
       10764.535       62.197798       25.772788       1
       10776.682       85.153066       20.642731       1
       10788.829       79.635503       25.750284       1
       10800.976       77.925150       20.634265       1
       10813.123       91.142880       25.941525       1
       10825.270       85.749008       20.589884       1
       10837.417       81.703694       25.669037       1
       10849.565       88.242105       20.556596       1
       10861.712       84.338350       25.377598       1
       10873.859       76.916726       20.142278       1
       10886.006       64.216481       25.092744       1
       10898.153       77.628023       20.166152       1
       10910.300       70.820124       25.049077       1
       10922.448       70.184355       20.025020       1
       10934.595       77.363181       25.039329       1
       10946.742       77.658945       20.087993       1
       10958.889       79.151593       25.102046       1
       10971.036       79.749135       20.147976       1
       10983.183       66.609390       24.941474       1
       10995.331       78.498280       20.136163       1
       11007.478       78.808583       25.108432       1
       11019.625       69.258416       20.038282       1
       11031.772       58.739274       24.833631       1
       11043.919       77.839745       19.995914       1
       11056.066       74.070100       25.000788       1
       11068.214       72.223373       19.865676       1
       11080.361       79.991403       24.950597       1
       11092.508       60.742635       19.864887       1
       11104.655       74.206698       25.283160       1
       11116.802       65.245317       20.100937       1
       11128.949       78.872954       25.431909       1
       11141.097       74.390452       20.200123       1
       11153.244       71.679971       25.135083       1
       11165.391       78.138993       20.235508       1
       11177.538       79.918980       25.381495       1
       11189.685       65.730226       20.152871       1
       11201.832       71.302100       25.278518       0
       11213.980       71.559088       20.205440       0
       11226.127       74.446599       25.277241       0
       11238.274       69.556422       20.027613       0
       11250.421       47.450514       25.012853       0
       11262.568       62.791811       20.068362       0
       11274.715       43.653897       24.917933       0
       11286.862       63.020391       22.462818       0
       11299.010       55.023566       25.116126       0
       11311.157       61.531192       20.107576       0
       11323.304       70.157828       7144856.9       0
       11335.451       61.479948       20.397507       0
       11347.598       76.523082       26.215312       0
       11359.745       69.260752       21.716659       0
       11371.893       53.499883       28.369206       0
       11384.040       56.101088       24.127708       0
       11396.187       61.887952       32.660889       0
       11408.334       64.319532       29.673890       0
       11420.481       76.843491       40.088629       0
       11432.628       39.365954       35.711355       0
       11444.776       82.232378       51.040673       0
       11456.923       21.618860       46.082893       0
       11469.070       65.694257       65.687205       0
       11481.217       38.275733       58.668465       0
       11493.364       73.352914       82.043439       0
       11505.511       69.330227       74.687209       0
       11517.659       28.667949       94.633063       0
       11529.806       54.292833       89.366661       0
       11541.953       63.899577       127.38841       0
       11554.100       86.049205       118.15143       0
       11566.247       35.532417       175.02443       0
       11578.394       125.36595       169.77406       0
       11590.542       12.862633       262.08614       0
       11602.689       7.5740123       304.08461       0
       11614.836       6.0692839       402.42636       0
       11626.983       32.249955       393.93498       0
       11639.130       336.24714       656.83425       0
       11651.277       9.3376772       580.04940       0
       11663.425       338.49136       1035.9873       0
       11675.572       312.49161       884.37419       0
       11687.719       515.75877       1503.0326       0
       11699.866      -365.30802       1480.6462       0
       11712.013       4.8765544       2402.1706       0
       11724.160      -953.64077       2526.7211       0
       11736.308       348.80908       4052.6945       0
       11748.455       138.95660       3736.8894       0
       11760.602       1252.3499       4939.1027       0
       11772.749       902.47513       3959.0252       0
       11784.896       2101.5505       4814.4581       0
       11797.043       2404.3238       3756.3938       0
       11809.190       1083.3990       4707.5830       0
       11821.338       1618.2929       3937.1404       0
       11833.485       3899.2281       5395.0182       0
       11845.632       2922.8611       4921.5421       0
       11857.779      -1562.5879       7161.0623       0
