#WAVELENGTH FLUX ERROR MASK
       7505.4867       6208.3185       17220.315       0
       7517.6681       195.03420       11641.585       0
       7529.8495       6314.4902       12425.395       0
       7542.0309       3285.3442       8245.7052       0
       7554.2123      -669.30803       8125.0100       0
       7566.3937      -1617.8187       5739.1754       0
       7578.5751      -2875.7761       5068.4999       0
       7590.7565       740.12413       3342.3248       0
       7602.9378       1122.6041       3506.2868       0
       7615.1192       966.76826       2352.3419       0
       7627.3006       957.07676       2511.2310       0
       7639.4820      -385.97571       1735.0793       0
       7651.6634      -307.47728       1888.5843       0
       7663.8448      -135.45028       1345.5992       0
       7676.0262       240.72296       1316.5433       0
       7688.2076       856.82386       891.13606       0
       7700.3889       521.20318       931.81941       0
       7712.5703       67.994066       709.72535       0
       7724.7517      -15.563371       701.15265       0
       7736.9331       126.07864       497.67611       0
       7749.1145       105.41597       561.61160       0
       7761.2959       176.70862       475.43221       0
       7773.4773      -29.679339       477.74783       0
       7785.6586       40.205871       357.24840       0
       7797.8400       149.07595       406.08297       0
       7810.0214       157.40118       291.86500       0
       7822.2028       280.96840       326.20457       0
       7834.3842     -0.95597846       236.31195       0
       7846.5656       75.424866       261.45181       0
       7858.7470       100.87136       195.11714       0
       7870.9284       13.453597       215.96043       0
       7883.1097       8.8006901       161.71530       0
       7895.2911       48.743051       185.89257       0
       7907.4725      -18.777586       140.33851       0
       7919.6539       60.703710       165.86270       0
       7931.8353       15.647477       126.48762       0
       7944.0167       164.77889       152.72393       0
       7956.1981       48.769822       118.20421       0
       7968.3795       82.737763       143.92109       0
       7980.5608       9.1898150       106.44565       0
       7992.7422       49.599180       127.04075       0
       8004.9236      0.84258480       99.192823       0
       8017.1050       60.496606       119.67177       0
       8029.2864       47.257487       94.576919       0
       8041.4678       16.329892       113.11078       0
       8053.6492       84.214611       90.123938       0
       8065.8305       42.771620       109.42119       0
       8078.0119       21.459890       92.048982       0
       8090.1933      -25.992965       105.43346       0
       8102.3747       56.399869       84.007993       0
       8114.5561      -10.450937       101.61839       0
       8126.7375       49.268624       81.160926       0
       8138.9189      -3.6180144       98.073161       0
       8151.1003       51.572189       78.290087       1
       8163.2816      -12.035278       95.079251       1
       8175.4630       2.2539950       75.465605       1
       8187.6444      -8.2070330       91.843070       1
       8199.8258       54.946550       72.893595       1
       8212.0072       1.1936523       87.878987       1
       8224.1886      -20.795342       69.667690       1
       8236.3700      -1.1070424       84.109287       1
       8248.5514       15.650486       66.243725       1
       8260.7327       17.968196       80.370529       1
       8272.9141       17.952947       63.037197       1
       8285.0955       30.438532       76.550886       1
       8297.2769       19.144887       60.195955       1
       8309.4583       42.932531       72.734381       1
       8321.6397      -8.0030299       56.835284       1
       8333.8211      -15.984776       69.860844       1
       8346.0024      -8.2574924       55.371662       1
       8358.1838      -38.914312       64.489207       1
       8370.3652      -16.098597       54.081561       1
       8382.5466      -17.551956       66.260196       1
       8394.7280       18.487923       52.770347       1
       8406.9094       4.3976819       64.581936       1
       8419.0908       19.508728       51.620322       1
       8431.2722       2.6221260       62.475566       1
       8443.4535      -56.939384       55.093703       1
       8455.6349       45.656475       61.018022       1
       8467.8163       9.8954727       49.704848       1
       8479.9977       8.9104626       59.000502       1
       8492.1791      -19.682006       51.083902       1
       8504.3605       3.4410433       57.852578       1
       8516.5419       32.687619       50.121912       1
       8528.7233      -6.7321791       56.670664       1
       8540.9046       17.428060       45.242451       1
       8553.0860      -7.1126647       55.827497       1
       8565.2674      -4.1462540       44.558915       1
       8577.4488       8.9487727       55.167081       1
       8589.6302       24.472059       44.519518       1
       8601.8116       14.352107       55.163924       1
       8613.9930       15.147388       50.179984       1
       8626.1743     -0.48607954       56.232978       1
       8638.3557       25.312580       45.575031       1
       8650.5371       26.095813       54.326969       1
       8662.7185       2.1370613       43.032563       1
       8674.8999       21.090408       52.907950       1
       8687.0813      -12.813747       41.875634       1
       8699.2627       24.469483       51.464354       1
       8711.4441       11.357817       40.552052       1
       8723.6254      -6.1120724       49.132458       1
       8735.8068       13.180231       38.890754       1
       8747.9882      -45.019665       45.226247       1
       8760.1696       26.975737       38.308813       1
       8772.3510       22.111218       47.031137       1
       8784.5324       21.615285       37.474197       1
       8796.7138       16.511331       46.108932       1
       8808.8952       19.307949       36.695732       1
       8821.0765       5.8381160       45.089808       1
       8833.2579       44.989841       36.038656       1
       8845.4393       31.511383       44.291818       1
       8857.6207       24.562532       35.178592       1
       8869.8021       10.429781       43.208144       1
       8881.9835       9.2764188       34.384852       1
       8894.1649       13.023266       41.995445       1
       8906.3462       25.184746       34.061766       1
       8918.5276       25.123076       41.991477       1
       8930.7090       45.672725       34.506769       1
       8942.8904       22.921146       41.298518       1
       8955.0718       22.076480       32.871774       1
       8967.2532       46.272751       40.787324       1
       8979.4346       47.507587       32.150579       1
       8991.6160       40.430057       40.414302       1
       9003.7973       10.297106       31.678859       1
       9015.9787       25.415121       39.472752       1
       9028.1601       33.284485       32.403862       1
       9040.3415       13.589350       39.161278       1
       9052.5229       41.037379       31.575622       1
       9064.7043       49.500323       39.045403       1
       9076.8857       21.924484       31.117659       1
       9089.0671       23.519601       38.340392       1
       9101.2484       26.476941       30.551035       1
       9113.4298       14.036838       37.876867       1
       9125.6112       17.727539       29.842283       1
       9137.7926       38.529424       37.263414       1
       9149.9740       39.872647       29.410800       1
       9162.1554       29.335454       36.125426       1
       9174.3368       22.752492       28.765022       1
       9186.5181       21.965484       35.421404       1
       9198.6995       21.489920       28.255524       1
       9210.8809       49.999202       35.097487       1
       9223.0623       32.406653       27.840001       1
       9235.2437     -0.43395933       33.069624       1
       9247.4251       20.808408       27.917919       1
       9259.6065       26.217733       34.521974       1
       9271.7879       18.307324       27.593474       1
       9283.9692       25.302328       34.143678       1
       9296.1506       26.423707       27.575800       1
       9308.3320       47.962178       33.908719       1
       9320.5134       29.884933       30.627413       1
       9332.6948       15.843709       33.363829       1
       9344.8762       30.316034       27.025121       1
       9357.0576       29.563576       33.196217       1
       9369.2390       40.460634       27.128081       1
       9381.4203       25.967829       32.889242       1
       9393.6017       47.763540       26.768883       1
       9405.7831       57.671772       8767464.4       1
       9417.9645       12.988536       24.761329       1
       9430.1459       37.475515       32.246931       1
       9442.3273       25.800026       25.712630       1
       9454.5087       3.4125136       30.233210       1
       9466.6900       37.609052       25.483368       1
       9478.8714       26.961531       31.378683       1
       9491.0528       21.719495       28.010940       1
       9503.2342       32.379078       31.215105       1
       9515.4156       47.398087       25.243890       1
       9527.5970       15.158741       29.662824       1
       9539.7784       40.116059       24.850336       1
       9551.9598       31.543882       31.352835       1
       9564.1411       38.242961       24.530883       1
       9576.3225       19.874424       30.799874       1
       9588.5039       43.957789       25.118357       1
       9600.6853       17.610299       29.902633       1
       9612.8667       26.138116       24.014640       1
       9625.0481      -2.9539924       28.165140       1
       9637.2295       36.295255       24.616606       1
       9649.4109       27.952322       29.684042       1
       9661.5922       36.024721       23.812294       1
       9673.7736       41.721346       29.862930       1
       9685.9550       36.345273       23.669066       1
       9698.1364      -29.750311       7734388.4       1
       9710.3178       39.057221       26.517894       1
       9722.4992       27.866128       28.782973       1
       9734.6806       40.734617       23.770778       1
       9746.8619       40.439505       28.821181       1
       9759.0433       24.512747       22.932263       1
       9771.2247       24.677206       28.307615       1
       9783.4061       34.904846       24.891372       1
       9795.5875       28.821809       28.023658       1
       9807.7689       24.962660       23.315550       1
       9819.9503       27.019963       27.936546       1
       9832.1317       25.982862       22.570184       1
       9844.3130       25.306050       28.267210       1
       9856.4944       20.548174       22.457236       1
       9868.6758       29.872629       27.881129       1
       9880.8572       37.085549       22.396665       1
       9893.0386       41.360805       27.879352       1
       9905.2200       19.164183       22.229328       1
       9917.4014       32.914921       27.658911       1
       9929.5828       38.104494       22.884660       1
       9941.7641       34.991983       27.472904       1
       9953.9455       26.090787       21.994387       1
       9966.1269       34.534596       27.002650       1
       9978.3083       25.271182       21.765201       1
       9990.4897       11.011011       26.500707       1
       10002.671       28.611731       21.410120       1
       10014.852       32.745538       26.419103       1
       10027.034       14.205815       21.129266       1
       10039.215       34.254668       26.274180       1
       10051.397       19.465440       21.117834       1
       10063.578       23.927856       26.113160       1
       10075.759       36.318912       21.257928       1
       10087.941       17.294223       26.196456       1
       10100.122       14.644628       21.494390       1
       10112.304       27.743959       26.246074       1
       10124.485       18.599908       21.422312       1
       10136.666       23.044125       25.982764       1
       10148.848       33.219124       20.874327       1
       10161.029       27.718459       25.471673       1
       10173.210       34.511260       20.550142       1
       10185.392       30.498146       25.354678       1
       10197.573       27.038772       20.439899       1
       10209.755       36.896043       25.395774       1
       10221.936       29.157798       20.241452       1
       10234.117       17.449075       24.853203       1
       10246.299       25.503437       19.967550       1
       10258.480       38.963918       24.820283       1
       10270.662       24.732384       19.756703       1
       10282.843       26.281687       24.547347       1
       10295.024       37.811260       19.717358       1
       10307.206       23.663655       24.418098       1
       10319.387       25.660095       19.435446       1
       10331.569       20.106587       24.282711       1
       10343.750       14.457507       19.315711       1
       10355.931       32.416173       24.169071       1
       10368.113       19.537238       19.353724       1
       10380.294       21.491557       23.971256       1
       10392.475       26.082007       19.436323       1
       10404.657       6.3104964       24.291600       1
       10416.838       15.338835       19.200992       1
       10429.020       19.662045       23.892825       1
       10441.201       13.606585       19.153934       1
       10453.382       22.329882       23.899700       1
       10465.564       25.721687       19.168140       1
       10477.745       21.559268       23.821288       1
       10489.927       26.551094       19.311918       1
       10502.108       27.215311       23.960542       1
       10514.289       21.066893       19.132145       1
       10526.471       5.1521772       23.770350       1
       10538.652       16.646590       19.398413       1
       10550.833      -26.250356       22.273208       1
       10563.015       16.040388       19.145665       1
       10575.196       16.870002       23.831143       1
       10587.378       10.141988       19.087909       1
       10599.559       19.380018       23.723806       1
       10611.740       17.620741       18.911150       1
       10623.922       26.956852       23.534871       1
       10636.103       9.5328966       18.775676       1
       10648.285       20.460625       23.290338       1
       10660.466       17.617079       18.559837       1
       10672.647       21.365634       24.389839       1
       10684.829       8.4554353       18.474761       1
       10697.010       1.6787421       22.854224       1
       10709.192       11.093906       18.442783       1
       10721.373       16.372769       22.922071       1
       10733.554       24.452662       18.536101       1
       10745.736       23.916713       23.006113       1
       10757.917       30.787333       18.496852       1
       10770.098       22.377365       22.856774       1
       10782.280       14.307206       18.376176       1
       10794.461       19.181788       22.859502       1
       10806.643       18.380176       18.379726       1
       10818.824       24.357465       23.030221       1
       10831.005       6.8228980       18.239747       1
       10843.187       22.742699       22.828736       1
       10855.368       25.056499       18.162794       1
       10867.550      -18.643654       21.072493       1
       10879.731       12.338750       18.008159       1
       10891.912       14.094302       22.484798       1
       10904.094       2.0050985       17.927183       1
       10916.275       3.8296604       22.266301       1
       10928.456       6.1172065       17.946681       1
       10940.638       17.022502       22.404168       1
       10952.819       26.178526       18.042989       1
       10965.001       9.7940461       22.245825       1
       10977.182       12.097014       18.013352       1
       10989.363       10.555932       22.356190       1
       11001.545       17.388771       18.008251       1
       11013.726       13.909175       22.281779       1
       11025.908       12.639279       17.903273       1
       11038.089       27.237236       22.225471       1
       11050.270       12.081506       17.919923       1
       11062.452       15.825859       21.931636       1
       11074.633       15.530456       18.087500       1
       11086.815       12.104860       22.300173       1
       11098.996       23.393006       20.068525       1
       11111.177       11.823788       22.370458       1
       11123.359       23.633293       18.125162       1
       11135.540       21.399271       22.532377       1
       11147.721       20.747063       17.922289       1
       11159.903       20.216583       22.437198       1
       11172.084       13.623435       20.320211       1
       11184.266       21.684916       22.360207       1
       11196.447       20.293160       18.012564       1
       11208.628       8.2975421       22.139783       0
       11220.810       19.112884       18.104881       0
       11232.991       30.850729       22.371523       0
       11245.173       12.812941       17.797708       0
       11257.354       25.148959       22.290717       0
       11269.535       21.078388       17.906287       0
       11281.717       23.555277       22.432141       0
       11293.898       9.7949240       17.730273       0
       11306.079       13.432408       22.161137       0
       11318.261       22.177871       19.828294       0
       11330.442       22.512361       23.008869       0
       11342.624       13.539631       18.913186       0
       11354.805       9.7546546       24.307561       0
       11366.986       6.6083569       21.033851       0
       11379.168       14.931932       27.586397       0
       11391.349       9.7080153       24.642778       0
       11403.531      -12.426601       32.879471       0
       11415.712     -0.14152342       31.402080       0
       11427.893      0.71235884       41.819957       0
       11440.075      -26.434929       43.347272       0
       11452.256      0.96016034       54.137034       0
       11464.438      -30.247435       49.106646       0
       11476.619      -11.220261       68.611259       0
       11488.800      -36.470667       66.285052       0
       11500.982      -79.530585       84.030007       0
       11513.163      -12.553909       75.447559       0
       11525.344      -44.518148       105.14895       0
       11537.526      -22.690533       97.416077       0
       11549.707      -77.448481       139.60196       0
       11561.889      -23.211057       136.05940       0
       11574.070       71.309594       205.54837       0
       11586.251      -177.43114       204.36253       0
       11598.433      -107.76998       315.82654       0
       11610.614      -4.4484608       315.23272       0
       11622.796      -122.82597       476.27285       0
       11634.977      -345.24524       464.06029       0
       11647.158       107.88660       690.70311       0
       11659.340      -388.49926       685.84333       0
       11671.521      -156.03723       1099.6227       0
       11683.702      -489.97038       1149.5327       0
       11695.884      -69.155349       1893.1950       0
       11708.065      -448.79257       1954.7991       0
       11720.247      -1289.2378       3163.4393       0
       11732.428      -1750.1913       3091.1302       0
       11744.609      -605.08664       4163.3278       0
       11756.791       479.70764       3469.3574       0
       11768.972       844.92771       4203.6225       0
       11781.154       1045.7669       3300.1518       0
       11793.335       176.68346       3988.4990       0
       11805.516      -643.52584       3298.0915       0
       11817.698       610.14867       4391.3305       0
       11829.879      -48.101899       3967.0751       0
       11842.061       1562.8190       5789.2150       0
       11854.242       729.09122       5497.0948       0
       11866.423       1779.9762       8119.9270       0
       11878.605      -302.95903       7604.7845       0
