#WAVELENGTH FLUX ERROR MASK
       10204.552       591.38019       3139.8014       0
       10227.575      -1248.0795       2622.5793       0
       10250.598       1811.1169       2374.1022       0
       10273.621       569.56653       1958.8118       0
       10296.644       743.17352       1751.3470       0
       10319.668       963.54939       1502.7218       0
       10342.691       971.18636       1391.5534       0
       10365.714       653.00163       1222.4033       0
       10388.737       552.98835       1151.3992       0
       10411.760       758.60846       1008.7454       0
       10434.783      -26.340051       922.35212       0
       10457.806      -75.256681       772.63586       0
       10480.829       289.01593       674.01626       0
       10503.852       446.92908       553.98961       0
       10526.875       309.42169       479.86950       0
       10549.899       260.58644       400.35851       0
       10572.922       125.09196       359.39879       0
       10595.945       90.813069       310.20115       0
       10618.968       201.24592       288.11578       0
       10641.991       207.02784       252.70721       0
       10665.014      -201.84699       217.99348       0
       10688.037       94.176660       195.47682       0
       10711.060       78.541719       171.97068       0
       10734.083       83.675070       139.59716       0
       10757.107       103.43418       120.08478       0
       10780.130       78.756399       97.036335       0
       10803.153       67.492178       84.671504       0
       10826.176       44.024485       70.968592       0
       10849.199       68.244494       64.214765       0
       10872.222       98.118238       56.583246       0
       10895.245       70.142215       52.757305       0
       10918.268       74.616024       48.207066       0
       10941.291       83.064192       46.111932       0
       10964.314       67.376631       41.928331       0
       10987.338       83.755566       40.302002       0
       11010.361       96.203679       36.794978       1
       11033.384       81.910393       35.055718       1
       11056.407       81.115263       32.238503       1
       11079.430       53.027035       7075689.8       1
       11102.453       62.416670       28.934833       1
       11125.476       53.811236       28.595671       1
       11148.499       61.333648       27.033643       1
       11171.522       70.876063       27.412529       1
       11194.546       78.656472       26.180268       1
       11217.569       72.847288       26.668917       1
       11240.592       68.819640       25.526200       1
       11263.615       64.548332       27.518953       1
       11286.638       24.170503       23.390871       1
       11309.661       64.993287       25.583853       1
       11332.684       65.592914       24.862079       1
       11355.707       49.849785       25.032152       1
       11378.730       72.859971       24.496957       1
       11401.753       57.685200       24.530054       1
       11424.777       58.152334       23.915138       1
       11447.800       51.994678       24.428970       1
       11470.823       79.332608       23.840394       1
       11493.846       63.555377       24.360909       1
       11516.869       65.065177       23.771687       1
       11539.892       50.035308       24.076807       1
       11562.915       42.902007       23.128891       1
       11585.938       54.871637       23.874976       1
       11608.961       4.1484541       21.969397       1
       11631.984       67.512436       23.763703       1
       11655.008       60.434620       23.036316       1
       11678.031       66.626980       23.446462       1
       11701.054       57.828924       22.569196       1
       11724.077       51.006591       23.421801       1
       11747.100       74.669225       22.354560       1
       11770.123       61.971020       23.096334       1
       11793.146       55.315758       21.716663       1
       11816.169       76.035938       22.242135       1
       11839.192       60.410572       21.337906       1
       11862.216       52.557788       21.651149       1
       11885.239       55.875004       20.869964       1
       11908.262       75.311780       21.577850       1
       11931.285       50.907891       21.248481       1
       11954.308       64.755537       21.468771       1
       11977.331       53.451219       20.811123       1
       12000.354       41.764125       20.801998       1
       12023.377       43.611043       20.053857       1
       12046.400       60.288376       20.732211       1
       12069.423       56.492276       20.063784       1
       12092.447       50.180812       20.334817       1
       12115.470       36.549107       19.562350       1
       12138.493       42.145416       20.114982       1
       12161.516       49.937131       19.580708       1
       12184.539       34.513486       19.797223       1
       12207.562       52.468887       19.399792       1
       12230.585       42.437052       19.682156       1
       12253.608       39.817054       19.022379       1
       12276.631       29.750091       19.302652       1
       12299.655       53.930271       18.975302       1
       12322.678       34.273808       19.166970       1
       12345.701       51.358965       18.761517       1
       12368.724       45.442580       19.097180       1
       12391.747       47.362427       18.633023       1
       12414.770       50.372761       19.035236       1
       12437.793       47.984356       18.440495       1
       12460.816       37.409869       18.872610       1
       12483.839       52.557620       18.348708       1
       12506.862       50.818142       18.846323       1
       12529.886       71.816182       18.603603       1
       12552.909       12.098197       17.303171       1
       12575.932       50.624307       18.261689       1
       12598.955       54.932637       18.559863       1
       12621.978       61.607544       18.376005       1
       12645.001       64.302016       18.576127       1
       12668.024       49.814855       18.045573       1
       12691.047       6.7986324       17.065753       1
       12714.070     0.075435219       16.653046       1
       12737.094       44.956872       17.952413       1
       12760.117       17.663087       16.272807       1
       12783.140       26.232988       16.799765       1
       12806.163       60.963668       17.441338       1
       12829.186       51.871840       17.676592       1
       12852.209       51.935252       17.270765       1
       12875.232       52.489649       17.633584       1
       12898.255       61.222770       17.246860       1
       12921.278       46.549968       17.359674       1
       12944.301       5.5467122       15.479398       1
       12967.325       44.772531       17.159125       1
       12990.348       49.674723       16.661002       1
       13013.371       43.385531       17.002663       1
       13036.394       50.053465       16.711578       1
       13059.417       65.604386       17.134795       1
       13082.440      -21.803157       13.874326       1
       13105.463       47.642901       16.672284       1
       13128.486       44.025742       16.291878       1
       13151.509       59.590810       16.983521       1
       13174.532       32.137965       15.559116       1
       13197.556       59.366655       16.659658       1
       13220.579       59.714836       16.193040       1
       13243.602       58.096952       16.519594       1
       13266.625       56.509913       15.945213       1
       13289.648       56.273886       16.286948       1
       13312.671       57.013726       15.962849       1
       13335.694       48.869763       16.127436       1
       13358.717       56.009827       15.924132       1
       13381.740       52.233195       16.124265       1
       13404.764       50.135732       15.643032       1
       13427.787       57.304215       15.939513       1
       13450.810       53.760976       15.445733       1
       13473.833       57.520835       15.830850       1
       13496.856       57.809844       15.375771       1
       13519.879       53.743516       15.724417       1
       13542.902      -5.6025920       14.262399       1
       13565.925       64.002097       15.668297       1
       13588.948       60.439983       15.244366       1
       13611.971       61.402809       15.626631       1
       13634.995       67.220577       15.390439       1
       13658.018       60.193908       15.637916       1
       13681.041       43.535975       15.139823       1
       13704.064       64.081446       15.637669       1
       13727.087       62.120594       15.279706       1
       13750.110       58.357758       15.708868       1
       13773.133       56.150722       15.241956       1
       13796.156       52.224332       15.589206       1
       13819.179       53.756194       15.224798       1
       13842.203       51.352217       15.541936       1
       13865.226       61.400205       15.254575       1
       13888.249       55.725226       15.513085       1
       13911.272       67.142920       15.303698       1
       13934.295       55.967126       15.419434       1
       13957.318       57.946900       15.018473       1
       13980.341       47.882486       15.282819       1
       14003.364       54.375890       14.933241       1
       14026.387       56.427151       15.214776       1
       14049.410       59.285236       14.760521       1
       14072.434       61.924868       15.077240       1
       14095.457       51.298082       14.560821       1
       14118.480       56.531782       14.932490       1
       14141.503       56.934102       14.527259       1
       14164.526       66.593468       14.947753       1
       14187.549       53.619771       14.459292       1
       14210.572       49.086022       14.721464       1
       14233.595       64.418129       14.477273       1
       14256.618       63.011289       14.655411       1
       14279.642       51.210954       14.249176       1
       14302.665       52.677814       14.523325       1
       14325.688       50.563321       14.133895       1
       14348.711       55.449833       14.456512       1
       14371.734       70.828659       14.398993       1
       14394.757       61.251506       14.435758       1
       14417.780       47.085984       13.809630       1
       14440.803       51.655605       14.497683       1
       14463.826       46.456974       14.146433       1
       14486.849       37.659469       14.382727       1
       14509.873       37.692331       14.094554       1
       14532.896      -4.3712605       13.232235       1
       14555.919       41.250803       13.986728       1
       14578.942       46.317961       14.348046       1
       14601.965       45.847293       13.981414       1
       14624.988       43.193104       14.387798       1
       14648.011       52.552317       14.120690       1
       14671.034       11.857835       13.355539       1
       14694.057       39.815004       14.070269       1
       14717.080       52.566958       14.483751       1
       14740.104       44.052410       14.000378       1
       14763.127      -20.840812       13.123423       1
       14786.150       46.131740       14.110884       1
       14809.173       42.892059       14.347358       1
       14832.196       29.885967       13.333647       1
       14855.219       48.109638       14.243170       1
       14878.242       52.986272       13.988123       1
       14901.265       49.743501       14.083690       1
       14924.288       48.772193       13.744842       1
       14947.312       51.021652       14.042918       1
       14970.335       53.507597       13.683095       1
       14993.358       50.790935       13.996603       1
       15016.381       50.528016       13.625108       1
       15039.404       3.8735895       12.717597       1
       15062.427       60.820541       13.386819       1
       15085.450       48.042292       13.610674       1
       15108.473       50.957922       13.250885       1
       15131.496       50.770408       13.531523       1
       15154.519       48.715542       3087946.0       1
       15177.543       48.560955       13.531555       1
       15200.566       46.914324       12.972385       1
       15223.589       48.008973       13.368293       1
       15246.612       54.451205       13.039117       1
       15269.635       16.504524       12.442054       1
       15292.658       69.808911       13.163326       1
       15315.681       49.791976       13.392656       1
       15338.704       54.974462       13.045935       1
       15361.727       44.920571       13.348717       1
       15384.751       49.596725       12.948613       1
       15407.774       51.931239       13.348755       1
       15430.797       61.952448       13.077256       1
       15453.820       53.824819       13.422465       1
       15476.843       62.039283       13.115378       1
       15499.866       39.168415       12.544429       1
       15522.889       55.044459       13.023833       1
       15545.912       59.287728       13.395687       1
       15568.935       57.392716       12.964185       1
       15591.958       49.145992       13.231075       1
       15614.982       62.963734       13.054585       1
       15638.005       53.803929       13.251496       1
       15661.028       13.321189       11.930886       1
       15684.051       52.089810       13.223895       1
       15707.074       61.943956       13.223307       1
       15730.097       60.040800       13.463535       1
       15753.120       53.373231       13.081662       1
       15776.143       67.234768       13.451945       1
       15799.166       60.105809       13.090059       1
       15822.190       50.737554       13.382273       1
       15845.213       54.659174       13.015031       1
       15868.236       62.125722       13.434421       1
       15891.259       17.311656       12.255458       1
       15914.282       58.868158       13.360790       1
       15937.305       7.3622473       11.845120       1
       15960.328       62.537482       13.332617       1
       15983.351       63.373843       2874955.1       1
       16006.374       54.017650       13.324487       1
       16029.397       70.512986       13.574162       1
       16052.421       55.768708       13.296280       1
       16075.444       58.707109       13.048387       1
       16098.467       63.537996       13.420095       1
       16121.490       55.365559       13.037462       1
       16144.513       70.097687       13.509167       1
       16167.536       60.283495       13.208651       1
       16190.559       70.013058       13.555029       1
       16213.582       64.341445       13.375468       1
       16236.605       49.986952       13.407827       1
       16259.628       57.082619       13.332327       1
       16282.652       59.497148       13.438875       1
       16305.675       52.505611       13.351790       1
       16328.698       60.490279       13.487260       1
       16351.721       55.713795       13.407868       1
       16374.744       54.777769       13.456967       1
       16397.767       56.042305       13.415832       1
       16420.790       43.897228       13.170121       1
       16443.813       59.873655       13.559091       1
       16466.836       54.294073       13.589050       1
       16489.860       44.872613       13.560561       1
       16512.883       52.711743       14.100567       1
       16535.906       43.080409       14.261083       1
       16558.929       5.1243709       13.847956       1
       16581.952       52.366718       15.483263       1
       16604.975       39.688742       16.683164       1
       16627.998       37.288686       17.570277       1
       16651.021       48.855104       4353066.4       1
       16674.044       50.279929       20.928808       1
       16697.067       50.391712       23.727287       1
       16720.091       32.610906       25.843104       1
       16743.114       34.787709       29.754629       1
       16766.137       35.562477       31.813875       0
       16789.160       34.921050       38.586797       0
       16812.183       49.034455       43.175620       0
       16835.206       49.207390       50.022434       0
       16858.229       30.969469       54.582224       0
       16881.252       76.893230       62.663386       0
       16904.275       32.692345       67.897121       0
       16927.299       84.449484       80.148282       0
       16950.322       37.581230       84.285481       0
       16973.345       37.695614       96.558835       0
       16996.368      -25.694237       104.74446       0
       17019.391       40.974563       119.39673       0
       17042.414       33.568336       128.96328       0
       17065.437       54.948766       146.37462       0
       17088.460      -128.48652       148.65622       0
       17111.483      -19.816015       173.51705       0
       17134.506       163.06943       205.89236       0
       17157.530       57.449553       242.22103       0
       17180.553       220.47322       269.80592       0
       17203.576       233.20885       315.17364       0
       17226.599       192.67728       345.61738       0
       17249.622       154.51318       397.03394       0
       17272.645      -380.29647       393.08767       0
       17295.668       750.16433       496.71471       0
       17318.691       407.18829       522.10322       0
       17341.714       833.92969       601.72587       0
       17364.738       719.62993       630.87406       0
