#WAVELENGTH FLUX ERROR MASK
       10221.866      -1059.2287       2552.7594       0
       10245.110       618.23699       2215.8588       0
       10268.354      -278.61585       1869.8825       0
       10291.598      -243.38977       1420.7464       0
       10314.842      -1469.1287       1313.8445       0
       10338.086      -533.06241       1115.0801       0
       10361.330       1757.1033       1100.8265       0
       10384.574       302.25907       933.62009       0
       10407.818       833.52233       914.84872       0
       10431.062       1091.5205       766.47264       0
       10454.306       963.39147       705.32701       0
       10477.550       617.00350       559.70326       0
       10500.793       57.487268       499.13628       0
       10524.037      -264.87738       393.63317       0
       10547.281      -74.932278       362.19192       0
       10570.525       540.11624       301.79762       0
       10593.769       586.70776       286.13454       0
       10617.013       737.01929       243.70352       0
       10640.257       44.451788       226.05720       0
       10663.501       442.93233       194.67862       0
       10686.745       365.13255       179.58913       0
       10709.989       390.78087       145.87664       0
       10733.233       268.91956       127.72285       0
       10756.477       382.31561       101.59790       0
       10779.721       202.32539       88.838024       0
       10802.964       349.85508       71.114789       0
       10826.208       204.86751       65.246549       0
       10849.452       304.86587       55.098749       0
       10872.696      -8.0405054       0.0000000       0
       10895.940       217.32052       44.964408       0
       10919.184       185.93231       44.174924       0
       10942.428       182.17459       38.898102       0
       10965.672       161.73202       38.473446       0
       10988.916       224.45144       34.270744       0
       11012.160       276.21659       34.723886       1
       11035.404       182.61123       29.410911       1
       11058.648       197.62132       30.077287       1
       11081.892       200.84734       26.495951       1
       11105.135       212.72173       29.210624       1
       11128.379       190.99355       24.651264       1
       11151.623       190.92029       25.690770       1
       11174.867       206.55037       23.655009       1
       11198.111       226.83442       24.658385       1
       11221.355       222.14018       23.221877       1
       11244.599       221.25384       23.422801       1
       11267.843       193.57886       22.177533       1
       11291.087       209.87792       23.836620       1
       11314.331       188.58672       21.908825       1
       11337.575       179.00121       23.021434       1
       11360.819       218.18434       21.792990       1
       11384.063       174.09815       22.652348       1
       11407.306       213.22743       21.287268       1
       11430.550       171.84220       22.241136       1
       11453.794       217.22054       21.231599       1
       11477.038       175.17970       21.764671       1
       11500.282       195.65404       20.839554       1
       11523.526       214.95407       22.229173       1
       11546.770       199.90042       20.836323       1
       11570.014       240.49585       22.370067       1
       11593.258       195.26801       20.458030       1
       11616.502       219.63726       21.394284       1
       11639.746       191.28479       20.051014       1
       11662.990       233.91960       21.556795       1
       11686.234       192.94283       19.805803       1
       11709.477       217.51054       20.935107       1
       11732.721       204.17039       19.414292       1
       11755.965       207.89030       20.350080       1
       11779.209       220.09033       19.122069       1
       11802.453       204.11220       19.913805       1
       11825.697       228.37229       18.748370       1
       11848.941       236.07662       19.937972       1
       11872.185       216.26258       18.337100       1
       11895.429       256.42460       19.780030       1
       11918.673       238.66144       18.434686       1
       11941.917       221.53202       19.172214       1
       11965.161       202.77901       17.919163       1
       11988.405       196.80285       18.855348       1
       12011.648       197.51426       17.682518       1
       12034.892       186.00116       18.446727       1
       12058.136       215.44921       17.548094       1
       12081.380       197.93074       18.168992       1
       12104.624       203.60614       17.273523       1
       12127.868       195.05686       18.134022       1
       12151.112       214.34538       17.102043       1
       12174.356       212.04763       18.043457       1
       12197.600       239.00238       17.240065       1
       12220.844       211.25078       17.799707       1
       12244.088       210.45993       11715772.       1
       12267.332       200.05957       17.499955       1
       12290.576       216.57446       16.638723       1
       12313.819       206.87230       17.496129       1
       12337.063       225.87553       16.680777       1
       12360.307       230.04307       17.475650       1
       12383.551       232.74680       16.366883       1
       12406.795       221.74765       16.887943       1
       12430.039       242.89416       16.408643       1
       12453.283       250.99293       17.359870       1
       12476.527       241.36791       16.236079       1
       12499.771       213.66222       16.982898       1
       12523.015       227.87787       16.087856       1
       12546.259       222.40000       16.856837       1
       12569.503       226.71191       15.912524       1
       12592.747       216.89810       16.767173       1
       12615.990       258.25567       16.326451       1
       12639.234       226.07033       16.832104       1
       12662.478       152.02620       17.119515       1
       12685.722       161.44048       17.288704       1
       12708.966       138.61851       16.698351       1
       12732.210       151.23158       16.897503       1
       12755.454       127.08080       16.462358       1
       12778.698       177.51084       16.881986       1
       12801.942       149.19954       16.582080       1
       12825.186       160.73607       16.512653       1
       12848.430       160.15224       16.453280       1
       12871.674       179.88602       16.536693       1
       12894.918       162.74494       16.393012       1
       12918.161       182.64570       16.623114       1
       12941.405       136.57523       15.970887       1
       12964.649       148.71995       16.208296       1
       12987.893       145.35539       15.930102       1
       13011.137       194.56748       16.341369       1
       13034.381       130.13820       15.724190       1
       13057.625       168.76840       15.883938       1
       13080.869       186.55371       16.193307       1
       13104.113       170.18621       15.828860       1
       13127.357       174.94279       15.803203       1
       13150.601       175.62746       15.737483       1
       13173.845       178.00892       15.704086       1
       13197.089       182.02419       15.484021       1
       13220.332       148.51998       15.151566       1
       13243.576       154.81447       15.155312       1
       13266.820       159.26699       15.161987       1
       13290.064       164.58342       15.002859       1
       13313.308       159.81337       15.201436       1
       13336.552       198.62240       15.383723       1
       13359.796       152.70668       15.100443       1
       13383.040       232.92562       15.725898       1
       13406.284       143.32993       14.755663       1
       13429.528       189.72218       15.201769       1
       13452.772       194.92290       15.173494       1
       13476.016       206.31239       15.234580       1
       13499.260       198.80410       15.158911       1
       13522.503       185.43250       14.907724       1
       13545.747       169.67155       14.734408       1
       13568.991       191.37068       14.856053       1
       13592.235       177.86162       14.914116       1
       13615.479       170.04726       14.711894       1
       13638.723       172.60042       14.688678       1
       13661.967       197.49852       15.070971       1
       13685.211       156.28652       14.536979       1
       13708.455       189.35471       14.902273       1
       13731.699       184.61084       14.914124       1
       13754.943       182.82505       14.842697       1
       13778.187       168.85698       14.731680       1
       13801.430       152.30497       14.764449       1
       13824.674       179.91632       14.905427       1
       13847.918       208.77208       15.063364       1
       13871.162       186.49130       14.788622       1
       13894.406       167.89943       14.792990       1
       13917.650       159.79453       14.557664       1
       13940.894       206.86109       14.890801       1
       13964.138       165.09210       14.518593       1
       13987.382       211.99834       14.967753       1
       14010.626       182.33551       14.533829       1
       14033.870       189.56873       14.625795       1
       14057.114       177.43695       14.371315       1
       14080.358       206.74939       14.557483       1
       14103.601       183.51177       14.402301       1
       14126.845       192.78923       14.410292       1
       14150.089       166.19609       14.077378       1
       14173.333       187.83652       14.318244       1
       14196.577       201.10189       14.417639       1
       14219.821       215.98431       14.386084       1
       14243.065       167.27749       14.041238       1
       14266.309       207.38998       14.273161       1
       14289.553       202.93556       14.174962       1
       14312.797       196.05877       14.131251       1
       14336.041       194.97050       13.988372       1
       14359.285       199.72995       13.927952       1
       14382.529       195.46861       13.983595       1
       14405.772       203.01840       13.990473       1
       14429.016       190.67211       13.786103       1
       14452.260       172.03724       13.728646       1
       14475.504       189.55290       14.017999       1
       14498.748       192.77255       13.938428       1
       14521.992       195.26714       13.990721       1
       14545.236       212.17414       14.009153       1
       14568.480       197.65625       13.844502       1
       14591.724       196.16459       14.049491       1
       14614.968       185.99243       13.857729       1
       14638.212       199.37781       13.926524       1
       14661.456       197.35920       13.953758       1
       14684.700       203.34360       14.008993       1
       14707.943       189.59324       13.747270       1
       14731.187       172.05819       13.742298       1
       14754.431       198.00600       13.890351       1
       14777.675       190.93707       13.729106       1
       14800.919       175.68435       13.691602       1
       14824.163       199.63637       13.915815       1
       14847.407       192.04338       13.790237       1
       14870.651       191.17460       14.795985       1
       14893.895      -3.8439596       0.0000000       1
       14917.139       165.57611       14.139917       1
       14940.383       183.48928       13.513573       1
       14963.627       230.98842       15.065018       1
       14986.871       187.43445       13.589546       1
       15010.114       183.40853       13.484682       1
       15033.358       141.88791       11.646239       1
       15056.602       142.15482       12.375966       1
       15079.846       153.67602       11.436558       1
       15103.090       141.34750       12.237256       1
       15126.334       154.85546       11.745621       1
       15149.578       145.54259       12.298516       1
       15172.822       152.95677       11.643905       1
       15196.066       146.65875       12.185583       1
       15219.310       140.03663       11.485622       1
       15242.554       146.09410       12.227595       1
       15265.798       149.51501       11.534445       1
       15289.042       157.50859       12.094487       1
       15312.285       140.24704       11.399520       1
       15335.529       163.26018       12.330329       1
       15358.773       154.21790       11.501034       1
       15382.017       161.54775       12.427131       1
       15405.261       142.74591       11.491919       1
       15428.505       145.32455       12.292754       1
       15451.749       163.39640       11.723611       1
       15474.993       143.62480       12.317666       1
       15498.237       172.67923       11.860264       1
       15521.481       185.03568       12.671023       1
       15544.725       172.15308       11.824934       1
       15567.969       177.24769       12.523468       1
       15591.213       169.06457       11.832219       1
       15614.456       144.46062       12.293720       1
       15637.700       126.85962       11.369810       1
       15660.944       142.30365       12.155564       1
       15684.188       136.93711       11.526036       1
       15707.432       148.67893       12.212152       1
       15730.676       150.74268       11.483905       1
       15753.920       132.87527       12.027469       1
       15777.164       157.45838       11.397352       1
       15800.408       166.85454       12.354341       1
       15823.652       156.99034       11.516447       1
       15846.896       162.24916       12.323323       1
       15870.140       161.07935       11.553658       1
       15893.384       181.18790       12.524409       1
       15916.627       167.12538       11.649235       1
       15939.871       153.51997       12.283184       1
       15963.115       154.19872       11.550286       1
       15986.359       167.43571       12.474999       1
       16009.603       155.72196       11.643483       1
       16032.847       169.57240       12.516119       1
       16056.091       161.60108       11.738251       1
       16079.335       156.95531       12.324648       1
       16102.579       173.11494       11.828465       1
       16125.823       162.95880       12.302315       1
       16149.067       161.34346       11.664579       1
       16172.311       159.68680       12.511167       1
       16195.555       151.86623       11.720172       1
       16218.798       153.88015       12.532986       1
       16242.042       183.62435       12.130593       1
       16265.286       155.98072       12.664728       1
       16288.530       164.09511       11.930491       1
       16311.774       188.47066       13.015998       1
       16335.018       169.78263       12.131915       1
       16358.262       173.81599       12.919707       1
       16381.506       171.09905       12.118171       1
       16404.750       159.02740       12.774188       1
       16427.994       146.18207       12.553159       1
       16451.238       153.39881       12.771255       1
       16474.482       157.34883       12.147613       1
       16497.726       171.21078       13.213469       1
       16520.969       149.83306       12.564976       1
       16544.213       175.99387       13.908241       1
       16567.457       163.47267       13.499306       1
       16590.701       154.09158       14.823849       1
       16613.945       185.09903       15.060040       1
       16637.189      -4.3528268       0.0000000       1
       16660.433       151.49301       17.063600       1
       16683.677       207.59205       20.300385       1
       16706.921       134.84252       20.582173       1
       16730.165       154.10939       24.650216       1
       16753.409       200.57189       26.599169       0
       16776.653       137.89883       31.310310       0
       16799.897       248.68321       34.332097       0
       16823.140       144.01950       40.434543       0
       16846.384       215.33924       43.256650       0
       16869.628       221.38915       51.859717       0
       16892.872       214.26695       54.474274       0
       16916.116       177.88076       63.775927       0
       16939.360       192.95628       67.593341       0
       16962.604       336.87970       81.107410       0
       16985.848       171.76539       82.777181       0
       17009.092       181.54312       99.070154       0
       17032.336       365.42990       104.58138       0
       17055.580       163.14278       121.71681       0
       17078.824       116.71873       126.89811       0
       17102.067       289.99441       153.21021       0
       17125.311       322.07561       164.25183       0
       17148.555       93.650740       198.08722       0
       17171.799       113.34030       214.39957       0
       17195.043       18.097083       262.25083       0
       17218.287       295.51855       280.40772       0
       17241.531      -195.60874       330.69376       0
       17264.775      -140.89132       353.73285       0
       17288.019      -545.52725       412.74256       0
       17311.263       409.45201       434.60419       0
       17334.507       394.25837       514.86835       0
       17357.751       843.63613       543.53366       0
       17380.995       1449.4422       650.05460       0
       17404.238       908.36190       755.37149       0
       17427.482       549.53211       813.85447       0
       17450.726       859.22620       920.06454       0
