#WAVELENGTH FLUX ERROR MASK
       7469.2552       8330.6668       23004.075       0
       7480.9904      -15485.782       25500.465       0
       7492.7255      -12517.498       19143.008       0
       7504.4607       7177.5399       19942.243       0
       7516.1959      -1145.3092       13689.116       0
       7527.9311       377.87853       10256.265       0
       7539.6662      -4920.6060       9892.2356       0
       7551.4014       13501.808   5.7938784e+09       0
       7563.1366       955.64079       6363.4344       0
       7574.8718      -2673.7718       6210.7044       0
       7586.6069      -4423.7677       4072.7302       0
       7598.3421       2726.8573       4228.3401       0
       7610.0773       1458.5454       2903.5438       0
       7621.8125      -999.24844       3046.3958       0
       7633.5477      -95.609610       2142.2869       0
       7645.2828       1511.0683       2301.8399       0
       7657.0180      -136.90031       1605.8247       0
       7668.7532       114.56219       1668.7517       0
       7680.4884       732.23779       1146.1028       0
       7692.2235      -215.20324       1181.0951       0
       7703.9587       719.15220       817.80066       0
       7715.6939       51.882844       869.23446       0
       7727.4291       781.42439       627.40572       0
       7739.1642       639.55637       695.54302       0
       7750.8994       287.38006       514.95269       0
       7762.6346       467.52958       587.92668       0
       7774.3698      -170.70827       619.21596       0
       7786.1050       51.162800       353.12946       0
       7797.8401       628.85833       373.95107       0
       7809.5753       236.65053       413.54329       0
       7821.3105       597.04141       306.89381       0
       7833.0457       568.97600       339.05704       0
       7844.7808       431.41843       248.15710       0
       7856.5160       525.58911       279.02195       0
       7868.2512       271.31538       205.05347       0
       7879.9864       341.18046       233.86030       0
       7891.7215       374.12980       176.96053       0
       7903.4567       329.00649       204.73056       0
       7915.1919       187.42914       156.09405       0
       7926.9271       394.29118       184.60155       0
       7938.6622       361.27009       143.34936       0
       7950.3974       303.63973       167.45558       0
       7962.1326       372.57340       131.45643       0
       7973.8678       389.10117       155.30106       0
       7985.6030       285.01561       120.98539       0
       7997.3381       209.18263       142.84871       0
       8009.0733       450.26777       115.02044       0
       8020.8085       386.14647       136.15526       0
       8032.5437       233.53136       107.80616       0
       8044.2788       400.07476       130.81032       0
       8056.0140       343.41023       111.65857       0
       8067.7492       508.13369       140.73240       0
       8079.4844       308.17863       107.77709       0
       8091.2195       268.39298       134.03703       0
       8102.9547       201.68870       103.38580       0
       8114.6899       265.55385       128.51306       0
       8126.4251       215.85400       99.604257       0
       8138.1603       403.49596       126.55976       0
       8149.8954       253.94566       97.162476       0
       8161.6306       317.43674       121.91109       1
       8173.3658       380.22123       94.887962       1
       8185.1010       434.65159       118.85961       1
       8196.8361       315.88004       90.723506       1
       8208.5713       282.65974       112.72327       1
       8220.3065       317.75825       87.479866       1
       8232.0417       233.72183       107.77571       1
       8243.7768       276.46897       92.220763       1
       8255.5120       353.48858       103.46224       1
       8267.2472       238.16101       94.604641       1
       8278.9824       369.83351       98.792269       1
       8290.7176       387.76216       75.717955       1
       8302.4527       300.42179       94.834821       1
       8314.1879       315.92689       72.159670       1
       8325.9231       208.27799       90.567658       1
       8337.6583       314.09581       70.367525       1
       8349.3934       272.68722       89.088320       1
       8361.1286       326.62759       69.047544       1
       8372.8638       325.20885       85.803951       1
       8384.5990       332.05083       66.947020       1
       8396.3341       185.67074       83.203746       1
       8408.0693       339.61162       72.633094       1
       8419.8045       488.53802       83.000026       1
       8431.5397       335.81833       63.593849       1
       8443.2748       322.64306       79.384947       1
       8455.0100       344.14240       61.496000       1
       8466.7452       278.27996       76.818561       1
       8478.4804       309.83069       59.870476       1
       8490.2156       303.82887       75.406447       1
       8501.9507       305.86828       58.610530       1
       8513.6859       344.29026       73.879082       1
       8525.4211       290.62549       57.306015       1
       8537.1563       355.78783       72.379437       1
       8548.8914       357.15815       56.730005       1
       8560.6266       330.53256       71.884605       1
       8572.3618       345.51917       55.838286       1
       8584.0970       325.60715       70.943964       1
       8595.8321       322.25051       55.051748       1
       8607.5673       345.50594       70.801794       1
       8619.3025       379.93805       61.349709       1
       8631.0377       360.24544       70.299988       1
       8642.7729       367.19764       61.304310       1
       8654.5080       294.41435       68.639633       1
       8666.2432       387.41161       54.295027       1
       8677.9784       357.82609       67.363846       1
       8689.7136       363.86111       52.500211       1
       8701.4487       338.83873       65.423410       1
       8713.1839       390.35249       56.555288       1
       8724.9191       313.82456       63.107492       1
       8736.6543       378.34389       49.243059       1
       8748.3894       257.43380       61.190020       1
       8760.1246       415.84506       48.439904       1
       8771.8598       239.58655       43.337853       1
       8783.5950       361.52946       47.275375       1
       8795.3302       229.98875       58.553108       1
       8807.0653       316.67550       46.157433       1
       8818.8005       294.56868       57.860725       1
       8830.5357       364.69969       45.543624       1
       8842.2709       358.44794       57.339462       1
       8854.0060       338.52967       44.605265       1
       8865.7412       310.73380       55.952814       1
       8877.4764       307.02027       43.411595       1
       8889.2116       310.49084       55.008294       1
       8900.9467       377.98188       43.228367       1
       8912.6819       386.93612       54.883342       1
       8924.4171       312.65710       42.401613       1
       8936.1523       315.18612       53.228506       1
       8947.8875       350.68049       41.504132       1
       8959.6226       276.16760       52.127339       1
       8971.3578       332.76706       40.793159       1
       8983.0930       371.83845       51.642513       1
       8994.8282       320.32485       39.948091       1
       9006.5633       343.03503       50.665157       1
       9018.2985       300.62053       39.578255       1
       9030.0337       354.53085       50.593451       1
       9041.7689       320.19580       38.882294       1
       9053.5040       343.73182       50.171684       1
       9065.2392       317.29071       38.891385       1
       9076.9744       349.14000       45.120153       1
       9088.7096       328.23334       36.349383       1
       9100.4447       328.65111       44.010869       1
       9112.1799       362.27939       35.799452       1
       9123.9151       331.18689       43.093756       1
       9135.6503       353.36833       35.106140       1
       9147.3855       322.01270       42.512359       1
       9159.1206       354.84507       34.491680       1
       9170.8558       292.75675       41.458990       1
       9182.5910       364.31140       33.737736       1
       9194.3262       295.15896       40.730455       1
       9206.0613       329.86503       33.267022       1
       9217.7965       325.08157       40.411451       1
       9229.5317       354.42158       32.920026       1
       9241.2669       311.18365       39.764146       1
       9253.0020       337.37377       32.363682       1
       9264.7372       337.77261       39.589900       1
       9276.4724       369.57384       32.382117       1
       9288.2076       321.26081       39.232826       1
       9299.9428       349.75921       31.998475       1
       9311.6779       289.66712       38.520507       1
       9323.4131       312.91678       31.224746       1
       9335.1483       285.40811       38.029002       1
       9346.8835       301.76272       31.145821       1
       9358.6186       312.84227       38.108340       1
       9370.3538       286.57715       30.723644       1
       9382.0890       303.42810       37.691325       1
       9393.8242       336.39106       30.574051       1
       9405.5593       334.55939       37.286195       1
       9417.2945       315.42084       30.094414       1
       9429.0297       365.26036       36.909291       1
       9440.7649       340.02443       29.914482       1
       9452.5001       311.65946       35.948951       1
       9464.2352       325.24900       29.696877       1
       9475.9704       354.97962       35.457518       1
       9487.7056       342.03731       29.819461       1
       9499.4408       320.49552       34.834724       1
       9511.1759       305.12775       41.212716       1
       9522.9111       274.71162       34.812972       1
       9534.6463       344.69479       28.954537       1
       9546.3815       307.38802       34.977807       1
       9558.1166       338.50016       28.509351       1
       9569.8518       350.26868       34.686068       1
       9581.5870       347.75916       28.420871       1
       9593.3222       386.04656       34.868749       1
       9605.0574       344.61666       28.073069       1
       9616.7925       332.34175       34.084718       1
       9628.5277       368.77907       27.937769       1
       9640.2629       363.25359       34.133837       1
       9651.9981       369.91942       27.942097       1
       9663.7332       145.70221       23.595830       1
       9675.4684       352.58215       27.618234       1
       9687.2036       372.88675       33.844979       1
       9698.9388       338.92913       27.146186       1
       9710.6739       345.67019       33.356118       1
       9722.4091       302.53325       26.720108       1
       9734.1443       340.41039       32.925397       1
       9745.8795       330.72513       26.708119       1
       9757.6146       326.41423       32.709484       1
       9769.3498       320.24698       26.458654       1
       9781.0850       329.37620       32.380877       1
       9792.8202       320.83038       26.295195       1
       9804.5554       327.69318       32.404716       1
       9816.2905       308.85271       26.120673       1
       9828.0257       368.25212       32.550803       1
       9839.7609       302.15934       25.962606       1
       9851.4961       312.68598       31.948065       1
       9863.2312       348.92672       26.177585       1
       9874.9664       296.52788       31.726390       1
       9886.7016       322.14818       26.009062       1
       9898.4368       145.00822       22.395461       1
       9910.1719       307.59572       25.742049       1
       9921.9071       358.08676       31.963855       1
       9933.6423       311.77383       25.634264       1
       9945.3775       329.52303       31.244741       1
       9957.1127       321.95820       25.334118       1
       9968.8478       308.12566       30.932146       1
       9980.5830       334.62535       25.142552       1
       9992.3182       277.39669       30.143244       1
       10004.053       304.19726       24.537767       1
       10015.789       290.04543       29.794079       1
       10027.524       329.27328       24.616486       1
       10039.259       284.12153       29.882554       1
       10050.994       309.70848       24.461246       1
       10062.729       298.81579       30.001405       1
       10074.464       345.64814       24.751957       1
       10086.200       313.51900       33.207836       1
       10097.935       333.65318       25.987223       1
       10109.670       324.27287       33.079250       1
       10121.405       323.65552       25.874722       1
       10133.140       338.07570       32.989847       1
       10144.875       306.96649       25.555845       1
       10156.611       282.23639       32.018807       1
       10168.346       328.49485       25.564245       1
       10180.081       316.01759       32.330138       1
       10191.816       309.17546       25.269248       1
       10203.551       335.89996       41.356084       1
       10215.287       342.02141       25.086268       1
       10227.022       275.42098       40.222649       1
       10238.757       319.72853       24.799601       1
       10250.492       294.56145       31.325907       1
       10262.227       308.20176       24.587789       1
       10273.962       316.84634       31.142870       1
       10285.698       287.00026       24.051790       1
       10297.433       302.20244       30.744626       1
       10309.168       316.39224       24.266952       1
       10320.903       333.76444       30.773351       1
       10332.638       326.24041       24.254016       1
       10344.373       257.55629       30.305485       1
       10356.109       343.18798       24.162048       1
       10367.844       317.00884       30.618161       1
       10379.579       376.19310       24.442226       1
       10391.314       317.78448       30.641418       1
       10403.049       306.55855       23.970634       1
       10414.785       298.61766       30.128064       1
       10426.520       322.55923       23.942885       1
       10438.255       310.22894       30.179688       1
       10449.990       311.40016       23.587453       1
       10461.725       301.52281       30.283271       1
       10473.460       319.09985       26.920498       1
       10485.196       307.58877       30.346226       1
       10496.931       312.57856       23.964978       1
       10508.666       317.21453       30.449782       1
       10520.401       323.82458       23.947986       1
       10532.136       290.56720       30.232050       1
       10543.871       291.73353       23.750505       1
       10555.607       305.45671       30.076523       1
       10567.342       307.89263       23.722793       1
       10579.077       311.16087       30.024765       1
       10590.812       315.51014       23.584634       1
       10602.547       301.61034       29.718098       1
       10614.283       323.37648       23.467988       1
       10626.018       274.61320       29.084660       1
       10637.753       343.77679       23.391865       1
       10649.488       305.64698       29.229111       1
       10661.223       299.16327       23.036144       1
       10672.958       320.51474       29.444411       1
       10684.694       294.26570       22.930976       1
       10696.429       316.50303       29.322621       1
       10708.164       292.38990       33.000893       1
       10719.899       319.74722       28.963443       1
       10731.634       332.23157       23.026256       1
       10743.369       292.38289       28.666552       1
       10755.105       292.63589       22.683147       1
       10766.840       301.65815       29.069918       1
       10778.575       315.77906       22.849037       1
       10790.310       325.20940       29.101224       1
       10802.045       297.14952       22.750483       1
       10813.781       302.89126       28.430785       1
       10825.516       272.28629       22.275839       1
       10837.251       294.28708       28.526178       1
       10848.986       305.80923       22.400737       1
       10860.721       320.58755       28.615990       1
       10872.456       287.15564       22.204167       1
       10884.192       282.22120       28.305281       1
       10895.927       322.80476       22.375426       1
       10907.662       254.78478       28.144600       1
       10919.397       314.43485       25.171758       1
       10931.132       278.99670       28.324894       1
       10942.868       333.47646       27.753522       1
       10954.603       326.84852       28.651414       1
       10966.338       319.86151       25.357683       1
       10978.073       313.00690       28.282201       1
       10989.808       334.90971       25.288764       1
       11001.543       296.04538       28.407085       1
       11013.279       318.18789       22.393666       1
       11025.014       302.11134       28.268367       1
       11036.749       352.28258       22.200901       1
       11048.484       307.07404       28.404512       1
       11060.219       302.67487       22.205953       1
       11071.954       328.87297       27.402644       1
       11083.690       306.52982       24.586554       1
       11095.425       339.47408       28.203586       1
       11107.160       303.37877       21.038604       1
       11118.895       284.03888       25.847836       1
       11130.630       307.77568       21.141329       1
       11142.366       297.49240       25.864765       1
       11154.101       301.85215       20.802910       1
       11165.836       269.11421       25.579911       1
       11177.571       295.89425       21.064537       1
       11189.306       264.94986       25.567017       1
       11201.041       272.70570       23.309838       0
       11212.777       286.79567       25.649694       0
       11224.512       282.60032       20.904165       0
       11236.247       290.28336       25.829480       0
       11247.982       287.25386       20.795692       0
       11259.717       299.66333       25.686716       0
       11271.452       288.90880       20.897994       0
       11283.188       258.58152       25.669999       0
       11294.923       272.98572       21.176046       0
       11306.658       286.58181       25.740503       0
       11318.393       288.07766       22.268904       0
       11330.128       267.90517       28.133560       0
       11341.864       302.34766       24.373635       0
       11353.599       285.82052       31.705912       0
       11365.334       279.14557       27.878347       0
       11377.069       273.08990       37.375243       0
       11388.804       283.39404       33.849999       0
       11400.539       269.25275       46.251519       0
       11412.275       279.43100       42.728139       0
       11424.010       259.14326       59.219310       0
       11435.745       307.87224       54.227036       0
       11447.480       275.48875       74.289970       0
       11459.215       281.73959       66.190909       0
       11470.950       197.12959       89.635825       0
       11482.686       282.33077       79.929419       0
       11494.421       385.14129       112.35127       0
       11506.156       127.48031       101.63594       0
       11517.891       294.60707       146.94918       0
       11529.626       226.67826       141.04987       0
       11541.362       358.96513       209.40510       0
       11553.097       138.92975       207.94080       0
       11564.832       533.51563       318.22901       0
       11576.567       46.026957       312.51820       0
       11588.302       365.95440       477.18930       0
       11600.037      -102.72130       458.18721       0
       11611.773       56.548178       686.39420       0
       11623.508      -122.08831       679.12664       0
       11635.243       495.90322       1033.4663       0
       11646.978      -455.46926       1091.0898       0
       11658.713       227.83885       1748.1970       0
       11670.448       1681.7422       2065.0008       0
       11682.184       2217.9484       2971.2781       0
