#WAVELENGTH FLUX ERROR MASK
       10233.427      -819.09641       2246.5751       0
       10256.352       2654.3566       1993.0882       0
       10279.278       623.32643       1660.0982       0
       10302.203       135.64437       1482.9479       0
       10325.128       701.31027       1285.8730       0
       10348.054      -207.25556       1175.0792       0
       10370.979      -405.59751       1042.7937       0
       10393.905       1473.9272       1001.8428       0
       10416.830      -804.24570       913.99383       0
       10439.755      -105.44873       811.66647       0
       10462.681       602.93443       707.08722       0
       10485.606       580.59972       596.61991       0
       10508.531      -580.16387       493.06595       0
       10531.457       285.90398       435.98599       0
       10554.382       443.14466       370.03364       0
       10577.307       429.42613       331.11358       0
       10600.233       576.09005       295.14097       0
       10623.158       150.58262       264.54160       0
       10646.084       728.61353       239.32557       0
       10669.009       656.32736       216.30349       0
       10691.934       291.29684       221.63544       0
       10714.860       534.39342       159.97087       0
       10737.785       874.29651       135.86401       0
       10760.710       226.40039       110.27725       0
       10783.636       297.09500       93.342423       0
       10806.561       358.46739       79.530617       0
       10829.487       224.38264       68.405235       0
       10852.412       293.54251       60.925925       0
       10875.337       206.80293       54.768695       0
       10898.263       223.25876       50.489679       0
       10921.188       171.27769       46.554361       0
       10944.113       215.53753       44.182820       0
       10967.039       265.39124       41.813899       0
       10989.964       185.86378       38.497153       0
       11012.890       388.37438       38.074598       1
       11035.815       214.97421       34.028231       1
       11058.740       274.59741       32.388489       1
       11081.666       248.38719       30.721064       1
       11104.591       240.60085       29.441777       1
       11127.516       261.74962       28.544935       1
       11150.442       290.57382       28.259430       1
       11173.367       271.62348       27.328068       1
       11196.292       248.80281       26.736444       1
       11219.218       267.52504       26.635764       1
       11242.143       259.07608       26.316008       1
       11265.069       243.09979       26.043073       1
       11287.994       262.56158       25.899906       1
       11310.919       297.04281       25.861933       1
       11333.845       271.21032       25.380133       1
       11356.770       256.07432       24.645888       1
       11379.695       304.39647       25.272015       1
       11402.621       267.04579       24.637382       1
       11425.546       274.59426       24.620214       1
       11448.472       236.08755       24.140887       1
       11471.397       303.75698       24.622362       1
       11494.322       286.99104       23.943057       1
       11517.248       295.45463       23.992293       1
       11540.173       240.41958       23.554422       1
       11563.098       282.26509       29.416587       1
       11586.024       233.16871       23.356797       1
       11608.949       256.48671       23.739543       1
       11631.875       298.72344       23.816433       1
       11654.800       235.80224       22.638025       1
       11677.725       272.44469       23.281835       1
       11700.651       286.29610       23.027748       1
       11723.576       330.56481       23.162430       1
       11746.501       227.67234       22.104883       1
       11769.427       266.10732       21.542716       1
       11792.352       250.78819       20.619275       1
       11815.277       250.08510       20.988176       1
       11838.203       282.96177       20.532303       1
       11861.128       238.33497       20.598734       1
       11884.054       274.40849       20.221201       1
       11906.979       258.53159       20.473856       1
       11929.904       298.08326       20.006215       1
       11952.830       243.92106       20.039183       1
       11975.755       133.77115       12.933393       1
       11998.680       243.54898       19.747200       1
       12021.606       253.50143       19.191168       1
       12044.531       288.99608       19.916707       1
       12067.457       255.65756       19.057235       1
       12090.382       250.35309       19.465966       1
       12113.307       248.84299       18.763749       1
       12136.233       257.03301       19.145921       1
       12159.158       238.01796       18.354916       1
       12182.083       191.06596       18.374017       1
       12205.009       244.60288       18.329929       1
       12227.934       236.60558       18.682812       1
       12250.860       238.90972       18.116971       1
       12273.785       242.30773       18.448006       1
       12296.710       224.72974       17.772728       1
       12319.636       260.72423       18.541041       1
       12342.561       227.04026       17.585570       1
       12365.486       223.95567       17.914057       1
       12388.412       236.22014       17.563126       1
       12411.337       242.28771       17.939626       1
       12434.262       248.42048       17.470330       1
       12457.188       231.25396       17.902550       1
       12480.113       257.93527       17.465249       1
       12503.039       245.03631       17.731349       1
       12525.964       238.94565       17.187323       1
       12548.889       226.72008       17.499046       1
       12571.815       248.16733       17.096464       1
       12594.740       234.61107       17.373860       1
       12617.665       245.38292       17.061007       1
       12640.591       228.55202       17.337129       1
       12663.516       241.31284       16.983582       1
       12686.442       234.25280       17.276254       1
       12709.367       238.62802       16.895409       1
       12732.292       214.48884       16.964177       1
       12755.218       245.82320       16.533035       1
       12778.143       238.89030       16.842285       1
       12801.068       252.02541       16.473439       1
       12823.994       230.42503       16.739791       1
       12846.919       269.38169       16.472592       1
       12869.845       126.21613       12.242981       1
       12892.770       233.14486       16.131956       1
       12915.695       246.42153       16.502549       1
       12938.621       255.71875       16.211471       1
       12961.546       242.13803       16.384891       1
       12984.471       279.85390       16.229221       1
       13007.397       249.69686       16.391959       1
       13030.322       312.10456       16.394376       1
       13053.247       218.67798       15.849230       1
       13076.173       259.22580       15.707117       1
       13099.098       244.96534       15.997169       1
       13122.024       270.60004       14.819622       1
       13144.949       217.85215       14.984192       1
       13167.874       248.72869       14.399200       1
       13190.800       239.88546       15.116784       1
       13213.725       232.64540       14.021981       1
       13236.650       227.73702       14.812556       1
       13259.576       233.82371       14.063828       1
       13282.501       220.64007       14.748851       1
       13305.427       228.72286       13.940186       1
       13328.352       220.85610       14.674869       1
       13351.277       247.87555       14.122667       1
       13374.203       234.03557       14.740468       1
       13397.128       254.56151       14.023623       1
       13420.053       231.74791       14.570446       1
       13442.979       229.67660       13.803001       1
       13465.904       195.42346       14.148531       1
       13488.830       225.07360       13.569032       1
       13511.755       248.83803       14.498614       1
       13534.680       229.69338       13.581711       1
       13557.606       195.91098       13.926831       1
       13580.531       222.02069       13.427275       1
       13603.456       204.18682       13.805637       1
       13626.382       206.57096       13.332402       1
       13649.307       221.37791       14.235438       1
       13672.232       210.03486       13.332030       1
       13695.158       229.55413       14.177527       1
       13718.083       243.44102       13.675774       1
       13741.009       215.72878       14.129391       1
       13763.934       237.25299       13.613294       1
       13786.859       232.62369       14.329606       1
       13809.785       227.59154       13.498188       1
       13832.710       210.55657       14.168957       1
       13855.635       229.34923       13.445656       1
       13878.561       215.98280       14.175566       1
       13901.486       238.14700       13.363613       1
       13924.412       213.83553       14.011707       1
       13947.337       224.13913       13.289696       1
       13970.262       236.62714       14.177818       1
       13993.188       262.61687       13.568122       1
       14016.113       258.48852       14.164956       1
       14039.038       242.76908       13.251454       1
       14061.964       215.76743       13.825321       1
       14084.889       219.87183       13.010280       1
       14107.815       234.03012       13.765117       1
       14130.740       266.01119       13.233712       1
       14153.665       244.95767       13.815834       1
       14176.591       249.59330       13.195062       1
       14199.516       229.04873       13.715121       1
       14222.441       252.29950       13.090614       1
       14245.367       243.95935       13.491750       1
       14268.292       253.04856       13.003819       1
       14291.217       239.86015       13.575306       1
       14314.143       232.13328       12.796542       1
       14337.068       222.55639       13.376029       1
       14359.994       238.87797       12.691497       1
       14382.919       244.35400       13.396498       1
       14405.844       248.91697       12.675151       1
       14428.770       249.72007       13.533769       1
       14451.695       237.71436       12.624862       1
       14474.620       256.33298       13.414657       1
       14497.546       220.80724       13.306080       1
       14520.471       200.04368       13.461346       1
       14543.397       203.61624       13.007979       1
       14566.322       202.99916       13.476778       1
       14589.247       219.83800       13.210236       1
       14612.173       228.23373       13.691043       1
       14635.098       191.81003       12.923847       1
       14658.023       201.48698       13.419670       1
       14680.949       195.24962       12.969695       1
       14703.874       217.52208       13.554365       1
       14726.799       192.55468       13.015891       1
       14749.725       195.15644       13.443039       1
       14772.650       218.09425       13.250215       1
       14795.576       219.14677       13.663557       1
       14818.501       194.78952       12.957524       1
       14841.426       202.09699       13.458249       1
       14864.352       195.45627       12.974373       1
       14887.277       212.96280       13.536554       1
       14910.202       208.11601       13.017148       1
       14933.128       205.64769       13.292692       1
       14956.053       204.69693       12.960175       1
       14978.979       180.22827       12.847026       1
       15001.904       199.94879       12.832118       1
       15024.829       192.73084       12.971624       1
       15047.755       185.34468       12.568762       1
       15070.680       208.63884       13.181664       1
       15093.605       196.35567       12.711142       1
       15116.531       207.30274       13.182503       1
       15139.456       202.60762       12.711624       1
       15162.382       207.49478       13.050536       1
       15185.307       213.00617       12.817314       1
       15208.232       211.26008       13.021565       1
       15231.158       197.71891       12.643202       1
       15254.083       209.05942       13.007710       1
       15277.008       219.36468       12.805734       1
       15299.934       205.64787       12.896891       1
       15322.859       204.04658       12.612912       1
       15345.784       218.01095       12.940241       1
       15368.710       185.67797       12.419666       1
       15391.635       190.46303       12.674498       1
       15414.561       202.68362       12.620748       1
       15437.486       202.63967       12.957788       1
       15460.411       215.95210       12.755275       1
       15483.337       213.13763       12.974847       1
       15506.262       194.56209       12.472825       1
       15529.187       210.38489       13.007863       1
       15552.113       200.25760       12.594749       1
       15575.038       209.23728       12.954274       1
       15597.964       204.95197       12.693689       1
       15620.889       205.51712       12.891976       1
       15643.814       195.15033       12.539990       1
       15666.740       205.79186       12.905433       1
       15689.665       217.53081       12.668086       1
       15712.590       210.17062       12.893489       1
       15735.516       210.44690       12.522585       1
       15758.441       210.31184       12.841112       1
       15781.367       210.64628       12.501682       1
       15804.292       206.02710       12.715419       1
       15827.217       186.20065       12.177379       1
       15850.143       211.06209       13.259293       1
       15873.068       222.97906       13.203775       1
       15895.993       215.65889       13.224414       1
       15918.919       213.99071       13.181681       1
       15941.844       236.94603       13.533036       1
       15964.769       212.86411       13.205416       1
       15987.695       191.68620       13.073689       1
       16010.620       214.01591       13.066589       1
       16033.546       192.66219       13.078883       1
       16056.471     -0.55314494       0.0000000       1
       16079.396       219.47626       13.214697       1
       16102.322     -0.48502838       0.0000000       1
       16125.247       166.85408       12.842439       1
       16148.172     -0.43954854       0.0000000       1
       16171.098       225.76919       13.424589       1
       16194.023     -0.39918793       0.0000000       1
       16216.949       209.15045       13.316858       1
       16239.874     -0.37191093       0.0000000       1
       16262.799       197.29668       13.246828       1
       16285.725     -0.35216341       0.0000000       1
       16308.650       240.49480       13.553117       1
       16331.575     -0.33021997       0.0000000       1
       16354.501     -0.31974249       0.0000000       1
       16377.426     -0.31196858       0.0000000       1
       16400.352     -0.30629086       0.0000000       1
       16423.277     -0.30203987       0.0000000       1
       16446.202     -0.29919251       0.0000000       1
       16469.128     -0.29865386       0.0000000       1
       16492.053     -0.30067746       0.0000000       1
       16514.978     -0.30555614       0.0000000       1
       16537.904     -0.31426871       0.0000000       1
       16560.829     -0.32784408       0.0000000       1
       16583.754     -0.34751323       0.0000000       1
       16606.680     -0.37398957       0.0000000       1
       16629.605     -0.40832934       0.0000000       1
       16652.531     -0.45195111       0.0000000       1
       16675.456     -0.50658700       0.0000000       1
       16698.381     -0.57447285       0.0000000       1
       16721.307     -0.65772595       0.0000000       1
       16744.232     -0.76004990       0.0000000       1
       16767.157     -0.88476292       0.0000000       0
       16790.083      -1.0360727       0.0000000       0
       16813.008      -1.2127071       0.0000000       0
       16835.934      -1.4181993       0.0000000       0
       16858.859      -1.6463895       0.0000000       0
       16881.784      -1.8966614       0.0000000       0
       16904.710      -2.1615765       0.0000000       0
       16927.635      -2.4416939       0.0000000       0
       16950.560      -2.7514754       0.0000000       0
       16973.486      -3.0843651       0.0000000       0
       16996.411      -3.4605956       0.0000000       0
       17019.337      -3.8796995       0.0000000       0
       17042.262      -4.3503553       0.0000000       0
       17065.187      -4.8547169       0.0000000       0
       17088.113      -5.3800206       0.0000000       0
       17111.038      -5.9474316       0.0000000       0
       17133.963      -6.6247256       0.0000000       0
       17156.889      -7.4231877       0.0000000       0
       17179.814      -8.4399116       0.0000000       0
       17202.739      -10.307730       0.0000000       0
       17225.665      -11.864978       0.0000000       0
       17248.590      -13.642042       0.0000000       0
       17271.516      -15.528758       0.0000000       0
       17294.441      -17.461144       0.0000000       0
       17317.366      -19.511007       0.0000000       0
       17340.292      -21.607767       0.0000000       0
       17363.217      -23.809456       0.0000000       0
