#WAVELENGTH FLUX ERROR MASK
       7469.2552       19132.722       24867.724       0
       7480.9904      -19901.063       28519.225       0
       7492.7255      -6254.5907       20709.381       0
       7504.4607      -14303.634       22069.851       0
       7516.1959      -37401.397       14500.524       0
       7527.9311      -6365.2053       16104.832       0
       7539.6662       15980.379       10803.979       0
       7551.4014      -2925.2682       10750.623       0
       7563.1366      -1882.4406       6817.2299       0
       7574.8718       5503.6842       6917.9136       0
       7586.6069       1274.8514       4423.4328       0
       7598.3421      -7910.3577       4610.6613       0
       7610.0773      -546.49147       3111.8834       0
       7621.8125      -1563.4966       3381.1769       0
       7633.5477      -2351.3737       2289.1264       0
       7645.2828       6294.5500       2611.8171       0
       7657.0180      -1364.1003       1725.4071       0
       7668.7532      -501.17144       1838.1127       0
       7680.4884       7.0351830       1230.3534       0
       7692.2235       1213.4863       1311.5170       0
       7703.9587      -125.19874       870.04707       0
       7715.6939       793.07892       968.68327       0
       7727.4291      -450.69483       666.63330       0
       7739.1642       688.46919       760.56515       0
       7750.8994      -72.781424       552.43422       0
       7762.6346       504.90539       650.19317       0
       7774.3698      -257.72255       470.23005       0
       7786.1050       261.72486       549.76403       0
       7797.8401       612.40197       401.79656       0
       7809.5753       155.02113       457.86795       0
       7821.3105       502.06732       326.83850       0
       7833.0457       608.63038       375.53204       0
       7844.7808       603.58242       268.35030       0
       7856.5160       428.13995       306.02097       0
       7868.2512       190.84875       218.71287       0
       7879.9864       483.93266       259.30633       0
       7891.7215       331.77927       189.78381       0
       7903.4567       526.56612       227.92494       0
       7915.1919       462.10826       169.96563       0
       7926.9271       515.38341       205.65438       0
       7938.6622       192.69585       152.98730       0
       7950.3974       441.19020       186.09478       0
       7962.1326       690.79189       142.67773       0
       7973.8678       273.84466       165.22477       0
       7985.6030       308.88346       130.38313       0
       7997.3381       589.19061       155.52506       0
       8009.0733       248.78563       121.29037       0
       8020.8085       464.63548       149.65101       0
       8032.5437       423.11162       116.40515       0
       8044.2788       244.42564       143.59406       0
       8056.0140       313.62515       104.32753       0
       8067.7492       238.81073       123.74034       0
       8079.4844       380.85089       99.317102       0
       8091.2195       253.41907       120.66660       0
       8102.9547       238.24856       96.265478       0
       8114.6899       181.34465       116.36268       0
       8126.4251       349.94324       94.754482       0
       8138.1603       111.09159       111.76673       0
       8149.8954       294.82918       90.942992       0
       8161.6306       464.65883       110.71824       1
       8173.3658       391.35297       87.824146       1
       8185.1010       279.87491       105.30980       1
       8196.8361       279.27557       84.432681       1
       8208.5713       320.84530       102.18898       1
       8220.3065       345.58159       81.918274       1
       8232.0417       254.77798       95.916621       1
       8243.7768       335.73093       78.112773       1
       8255.5120       314.70385       90.581175       1
       8267.2472       367.00906       74.913178       1
       8278.9824       256.16898       88.031447       1
       8290.7176       368.52470       71.651254       1
       8302.4527       373.73009       85.712514       1
       8314.1879       250.35162       67.992301       1
       8325.9231       347.15803       82.383443       1
       8337.6583       368.54534       66.111862       1
       8349.3934       301.57278       80.053668       1
       8361.1286       411.48844       70.211028       1
       8372.8638       441.70353       78.923194       1
       8384.5990       369.76268       63.275206       1
       8396.3341       355.91697       76.351667       1
       8408.0693       398.16887       61.923121       1
       8419.8045       407.52570       75.243018       1
       8431.5397       447.38121       60.370475       1
       8443.2748       390.48324       72.306062       1
       8455.0100       515.62555       59.356821       1
       8466.7452       407.13714       70.738792       1
       8478.4804       454.53444       57.308902       1
       8490.2156       428.83101       69.097188       1
       8501.9507       367.26029       55.221367       1
       8513.6859       449.93921       68.014730       1
       8525.4211       390.04234       54.735857       1
       8537.1563       420.34265       66.756837       1
       8548.8914       423.36929       53.831825       1
       8560.6266       401.87863       65.890960       1
       8572.3618       452.74062       53.604261       1
       8584.0970       449.29344       65.592501       1
       8595.8321       367.20739       52.527880       1
       8607.5673       360.28825       64.259049       1
       8619.3025       407.06150       52.573860       1
       8631.0377       428.77796       64.329797       1
       8642.7729       497.28119       52.633643       1
       8654.5080       376.87249       71.892056       1
       8666.2432       510.12336       52.103235       1
       8677.9784       406.85803       70.013126       1
       8689.7136       404.63436       49.784883       1
       8701.4487       472.82805       60.364032       1
       8713.1839       405.88098       47.909408       1
       8724.9191       343.02003       57.202202       1
       8736.6543       357.01545       46.047278       1
       8748.3894       387.46494       56.298165       1
       8760.1246       357.83423       44.750962       1
       8771.8598       378.60394       55.277061       1
       8783.5950       447.43355       45.146174       1
       8795.3302       384.02943       54.087724       1
       8807.0653       426.15115       43.724224       1
       8818.8005       435.96942       53.759978       1
       8830.5357       442.75851       42.687784       1
       8842.2709       371.49977       52.068247       1
       8854.0060       372.16473       41.598072       1
       8865.7412       425.08696       51.846069       1
       8877.4764       492.42520       51.476869       1
       8889.2116       399.74963       50.363061       1
       8900.9467       395.97387       41.094262       1
       8912.6819       427.25411       49.708884       1
       8924.4171       427.91635       40.544344       1
       8936.1523       401.44502       48.769879       1
       8947.8875       400.44813       48.381471       1
       8959.6226       384.31824       46.693182       1
       8971.3578       387.44972       38.803746       1
       8983.0930       414.43335       47.300283       1
       8994.8282       366.09021       37.928041       1
       9006.5633       481.49230       47.332410       1
       9018.2985       426.78459       38.172525       1
       9030.0337       426.91103       46.569278       1
       9041.7689       411.17525       37.934696       1
       9053.5040       465.35107       46.496754       1
       9065.2392       401.89736       37.246762       1
       9076.9744       375.96776       49.508323       1
       9088.7096       306.83693       38.376759       1
       9100.4447       285.03110       47.789634       1
       9112.1799       369.75993       37.727911       1
       9123.9151       401.93281       48.378885       1
       9135.6503       366.43153       37.432133       1
       9147.3855       422.15072       47.464655       1
       9159.1206       361.91484       36.882927       1
       9170.8558       330.59879       45.935602       1
       9182.5910       424.89076       36.507828       1
       9194.3262       359.00275       45.314328       1
       9206.0613       383.55814       35.639708       1
       9217.7965       316.50696       44.268596       1
       9229.5317       443.58514       35.724272       1
       9241.2669       521.92178       45.564724       1
       9253.0020       439.02765       35.202226       1
       9264.7372       407.35137       44.131984       1
       9276.4724       396.10796       34.504073       1
       9288.2076       333.51644       43.078058       1
       9299.9428       427.08706       34.452956       1
       9311.6779       315.56025       42.487238       1
       9323.4131       384.78045       33.826045       1
       9335.1483       381.47074       42.768305       1
       9346.8835       423.71186       33.633898       1
       9358.6186       315.35313       41.909523       1
       9370.3538       314.90609       32.770309       1
       9382.0890       384.66014       42.011730       1
       9393.8242       437.13885       33.209713       1
       9405.5593       430.75002       41.866744       1
       9417.2945       424.70341       32.573872       1
       9429.0297       411.72245       40.912039       1
       9440.7649       429.63563       32.366928       1
       9452.5001       449.88995       40.882766       1
       9464.2352       432.06212       31.876198       1
       9475.9704       420.41038       40.286808       1
       9487.7056       428.53846       31.824126       1
       9499.4408       424.00138       40.078815       1
       9511.1759       397.07092       31.310969       1
       9522.9111       452.79143       39.450177       1
       9534.6463       368.73007       30.693845       1
       9546.3815       408.67389       38.961367       1
       9558.1166       424.46475       30.723846       1
       9569.8518       420.42168       38.964879       1
       9581.5870       387.45596       30.366340       1
       9593.3222       445.46539       38.831279       1
       9605.0574       435.60794       30.363268       1
       9616.7925       358.71091       37.694231       1
       9628.5277       441.80951       30.079622       1
       9640.2629       506.29539       38.189496       1
       9651.9981       412.68801       29.756754       1
       9663.7332       397.01575       37.312140       1
       9675.4684       415.08491       29.582388       1
       9687.2036       375.25866       37.045877       1
       9698.9388       386.39114       28.871130       1
       9710.6739       529.43190       37.949458       1
       9722.4091       424.80485       28.820038       1
       9734.1443       444.19832       37.021927       1
       9745.8795       403.42578       28.604934       1
       9757.6146       412.83038       36.406842       1
       9769.3498       423.74476       28.620595       1
       9781.0850       408.29514       35.987862       1
       9792.8202       422.03994       28.412373       1
       9804.5554       456.75267       36.563257       1
       9816.2905       383.44962       28.116867       1
       9828.0257       397.17178       35.828604       1
       9839.7609       408.91141       28.066008       1
       9851.4961       354.54361       35.403472       1
       9863.2312       379.47911       33.527050       1
       9874.9664       356.65391       35.447266       1
       9886.7016       380.38329       27.705188       1
       9898.4368       368.94803       35.164299       1
       9910.1719       350.74884       27.414893       1
       9921.9071       472.84427       35.823849       1
       9933.6423       406.68437       27.563049       1
       9945.3775       373.07894       34.647485       1
       9957.1127       412.88227       27.304647       1
       9968.8478       455.97179       34.738317       1
       9980.5830       387.44451       26.778682       1
       9992.3182       403.29696       34.160594       1
       10004.053       384.45772       26.589260       1
       10015.789       369.28575       33.694663       1
       10027.524       361.48457       26.333272       1
       10039.259       435.41734       33.901507       1
       10050.994       415.11988       26.635354       1
       10062.729       412.24531       33.916487       1
       10074.464       444.94483       26.771513       1
       10086.200       294.79651       29.909333       1
       10097.935       372.23456       24.987427       1
       10109.670       319.57679       30.155506       1
       10121.405       380.58563       24.916027       1
       10133.140       348.15009       30.190281       1
       10144.875       347.05302       24.465149       1
       10156.611       365.57533       30.124539       1
       10168.346       361.30716       24.457973       1
       10180.081       320.27417       33.603362       1
       10191.816       400.77173       24.672751       1
       10203.551       384.28800       32.520218       1
       10215.287       355.60897       24.010193       1
       10227.022       311.42815       29.022069       1
       10238.757       416.24034       24.207190       1
       10250.492       356.22283       29.169313       1
       10262.227       400.10575       23.943420       1
       10273.962       305.69147       28.274504       1
       10285.698       392.48603       23.666096       1
       10297.433       386.27298       28.782181       1
       10309.168       373.75113       23.488272       1
       10320.903       309.01320       28.171587       1
       10332.638       388.43621       23.353963       1
       10344.373       359.02427       28.493705       1
       10356.109       361.98709       23.192830       1
       10367.844       358.96140       28.466133       1
       10379.579       356.04445       23.149755       1
       10391.314       372.35510       28.024340       1
       10403.049       338.23265       39.640247       1
       10414.785       357.50746       28.026290       1
       10426.520       396.19510       23.329837       1
       10438.255       342.44566       27.973742       1
       10449.990       408.31212       23.233553       1
       10461.725       321.62459       27.891434       1
       10473.460       396.83105       23.152840       1
       10485.196       315.76698       27.351346       1
       10496.931       384.64683       23.002220       1
       10508.666       347.75078       27.403505       1
       10520.401       340.31105       39.397871       1
       10532.136       391.05769       28.202588       1
       10543.871       386.50362       22.971014       1
       10555.607       385.36332       28.215799       1
       10567.342       429.05811       23.246780       1
       10579.077       361.39468       27.965868       1
       10590.812       392.93825       22.788507       1
       10602.547       263.40199       26.953934       1
       10614.283       356.20267       22.425568       1
       10626.018       353.94259       27.230341       1
       10637.753       364.35761       22.277965       1
       10649.488       342.21924       26.646345       1
       10661.223       373.41122       22.238330       1
       10672.958       339.37973       26.896020       1
       10684.694       382.46602       22.131058       1
       10696.429       357.61820       26.977636       1
       10708.164       366.20607       21.847638       1
       10719.899       338.06284       26.965170       1
       10731.634       349.62565       21.829219       1
       10743.369       344.71675       26.784300       1
       10755.105       390.68489       22.197828       1
       10766.840       326.18266       26.779326       1
       10778.575       392.49780       22.146113       1
       10790.310       389.67705       26.893085       1
       10802.045       385.88674       21.992940       1
       10813.781       380.69960       26.275689       1
       10825.516       405.26027       22.033855       1
       10837.251       374.75930       26.782399       1
       10848.986       339.09195       21.547802       1
       10860.721       397.67099       26.858297       1
       10872.456       385.00377       21.804138       1
       10884.192       382.69306       26.761678       1
       10895.927       354.52604       21.549344       1
       10907.662       378.68465       26.667588       1
       10919.397       410.47288       21.915035       1
       10931.132       371.68398       26.689006       1
       10942.868       360.06649       21.521718       1
       10954.603       395.05752       26.743220       1
       10966.338       403.99724       21.864709       1
       10978.073       388.78681       26.769245       1
       10989.808       380.00704       21.658634       1
       11001.543       399.15356       26.913248       1
       11013.279       367.05801       21.526804       1
       11025.014       349.89991       26.219825       1
       11036.749       359.02323       21.311079       1
       11048.484       360.21939       26.361771       1
       11060.219       340.53329       21.418360       1
       11071.954       366.58630       26.452327       1
       11083.690       353.26172       21.526638       1
       11095.425       407.20861       26.868966       1
       11107.160       358.22804       22.572727       1
       11118.895       258.81814       28.085255       1
       11130.630       363.90050       22.641284       1
       11142.366       327.72728       28.526458       1
       11154.101       351.40611       22.628177       1
       11165.836       283.94554       28.264613       1
       11177.571       343.39146       22.556566       1
       11189.306       331.15137       28.448211       1
       11201.041       370.82369       28.151591       0
       11212.777       307.40330       28.050903       0
       11224.512       322.95401       22.408564       0
       11236.247       317.97274       28.144417       0
       11247.982       359.99170       22.518361       0
       11259.717       328.45782       28.133470       0
       11271.452       323.15775       22.428255       0
       11283.188       278.62052       28.153734       0
       11294.923       353.65898       22.846772       0
       11306.658       312.27836       29.106068       0
       11318.393       346.94201       23.891118       0
       11330.128       344.41400       31.466093       0
       11341.864       331.02854       25.421510       0
       11353.599       370.25853       46.800806       0
       11365.334       381.28560       30.087050       0
       11377.069       404.83350       41.651871       0
       11388.804       365.39028       44.374760       0
       11400.539       396.89781       50.732786       0
       11412.275       311.35560       45.310115       0
       11424.010       418.50573       65.897240       0
       11435.745       396.06138       58.547833       0
       11447.480       261.66428       81.845887       0
       11459.215       320.22498       71.679680       0
       11470.950       233.10518       99.131651       0
       11482.686       525.68430       88.761083       0
       11494.421      -306.54253       0.0000000       0
       11506.156       527.63561       112.02605       0
       11517.891       240.41880       160.46623       0
       11529.626       256.81215       151.28188       0
       11541.362       102.16753       230.68273       0
       11553.097       539.68079       225.87714       0
       11564.832       533.57257       347.00004       0
       11576.567       475.74018       340.80388       0
       11588.302       1023.0468       536.16441       0
       11600.037       134.82831       499.71307       0
       11611.773      -1144.4422       765.80784       0
       11623.508       1610.2161       733.10927       0
       11635.243      -550.35092       1155.1321       0
       11646.978       554.53761       1454.1363       0
       11658.713      -59.242104       1956.3556       0
       11670.448       983.84725       1960.4794       0
       11682.184      -4833.7758       3245.6981       0
