#WAVELENGTH FLUX ERROR MASK
       10224.548       3051.2230       2512.0558       0
       10247.504       1443.6423       2104.7653       0
       10270.460      -102.43605       1832.3197       0
       10293.416       53.785341       1550.3080       0
       10316.372      -1290.9188       1388.1430       0
       10339.328      -224.49997       1211.8576       0
       10362.284       491.59799       1147.9379       0
       10385.240       296.73451       1016.9272       0
       10408.196       10.459183       952.71411       0
       10431.152      -282.56590       827.64762       0
       10454.108      -13.353782       737.08616       0
       10477.064      -775.17579       604.18308       0
       10500.020       80.182781       531.39443       0
       10522.977       242.79277       436.58327       0
       10545.933       141.89007       385.04152       0
       10568.889       217.57569       328.33520       0
       10591.845       434.58089       300.30370       0
       10614.801       114.81365       260.92576       0
       10637.757       330.28251       243.52513       0
       10660.713       107.64968       187.98269       0
       10683.669       255.55325       192.09521       0
       10706.625       151.76360       159.03262       0
       10729.581       209.07933       138.31461       0
       10752.537       155.82944       112.08358       0
       10775.493       231.17424       96.762053       0
       10798.449       214.40292       79.427732       0
       10821.406       208.66368       70.542742       0
       10844.362       187.99721       60.086690       0
       10867.318       166.89924       55.460138       0
       10890.274       190.55055       49.420591       0
       10913.230       159.21246       46.964904       0
       10936.186       146.71877       42.423327       0
       10959.142       160.47457       41.082715       0
       10982.098       204.81479       37.837448       0
       11005.054       159.81458       35.962265       1
       11028.010       167.05487       32.851822       1
       11050.966       181.23612       31.892089       1
       11073.922       184.33249       29.300140       1
       11096.878       166.04988       28.704638       1
       11119.835       167.03802       26.753685       1
       11142.791       163.19056       26.715551       1
       11165.747       141.65249       25.141780       1
       11188.703       169.74769       25.596147       1
       11211.659       177.55760       24.766572       1
       11234.615       156.84446       27.968514       1
       11257.571       149.93283       23.998535       1
       11280.527       159.92012       27.449128       1
       11303.483       159.17150       23.683532       1
       11326.439       153.62576       23.966030       1
       11349.395       173.28967       23.341305       1
       11372.351       149.00262       23.434628       1
       11395.307       108.12386       20.062397       1
       11418.264       181.57222       23.358548       1
       11441.220       156.63315       22.532600       1
       11464.176       146.30954       22.769898       1
       11487.132       159.69029       22.173920       1
       11510.088       141.52444       22.624339       1
       11533.044       142.83158       21.953846       1
       11556.000       148.58543       22.474308       1
       11578.956       151.29124       21.726301       1
       11601.912       145.93560       22.298035       1
       11624.868       175.55136       21.731596       1
       11647.824       160.02214       21.936412       1
       11670.780       161.67286       21.199276       1
       11693.736       153.22052       21.407823       1
       11716.693       162.30868       20.811419       1
       11739.649       177.70293       21.230994       1
       11762.605       160.79523       20.182346       1
       11785.561       163.06911       20.641055       1
       11808.517       167.33208       19.907532       1
       11831.473       161.64572       20.206106       1
       11854.429       160.19088       19.494094       1
       11877.385       161.71393       19.869305       1
       11900.341       145.77862       19.035373       1
       11923.297       178.75695       19.800843       1
       11946.253       183.57235       19.190504       1
       11969.209       169.50636       19.406588       1
       11992.165       157.15835       18.722390       1
       12015.122       165.80824       19.134784       1
       12038.078       75.246797       13.898921       1
       12061.034       157.37027       18.693049       1
       12083.990       180.72059       18.439215       1
       12106.946       147.99852       18.428955       1
       12129.902       141.26794       17.798096       1
       12152.858       147.30926       18.304099       1
       12175.814       159.01958       17.838268       1
       12198.770       143.20970       18.083342       1
       12221.726       153.53701       17.596493       1
       12244.682       135.42590       17.764780       1
       12267.638       158.63301       17.429394       1
       12290.594       155.51150       17.821941       1
       12313.551       139.67043       17.080698       1
       12336.507       141.16694       17.463531       1
       12359.463       161.07365       17.090514       1
       12382.419       152.93779       17.450211       1
       12405.375       147.33558       16.920139       1
       12428.331       155.76943       17.341128       1
       12451.287       170.33284       16.972059       1
       12474.243       169.01581       17.269509       1
       12497.199       141.16964       16.610237       1
       12520.155       158.95071       17.104506       1
       12543.111       129.61357       16.339021       1
       12566.067       162.57614       17.106463       1
       12589.023       143.41654       16.322265       1
       12611.980       140.28267       16.836493       1
       12634.936       147.48459       16.329813       1
       12657.892       151.55269       16.734280       1
       12680.848       146.95078       16.232074       1
       12703.804       150.62723       16.635357       1
       12726.760       144.35870       16.023336       1
       12749.716       154.56716       16.362660       1
       12772.672       141.41621       15.733664       1
       12795.628       169.32377       16.368846       1
       12818.584       126.57836       15.467042       1
       12841.540       153.19890       16.072624       1
       12864.496       156.05325       15.565481       1
       12887.452       144.85411       15.821516       1
       12910.409       151.21660       15.517432       1
       12933.365       81.584510       11.758671       1
       12956.321       161.22783       15.434694       1
       12979.277       150.76467       15.551973       1
       13002.233       134.76034       14.930096       1
       13025.189       164.99328       15.524956       1
       13048.145       154.32925       15.010439       1
       13071.101       159.60592       15.411673       1
       13094.057       137.21021       14.738853       1
       13117.013       151.22651       15.180417       1
       13139.969       138.91224       14.635805       1
       13162.925       138.48144       14.851119       1
       13185.881       142.16633       14.513610       1
       13208.838       135.36768       14.579126       1
       13231.794       138.74079       14.345249       1
       13254.750       140.10551       14.515043       1
       13277.706       148.07396       14.269592       1
       13300.662       140.02697       14.432786       1
       13323.618       136.93717       14.134579       1
       13346.574       137.54403       14.467639       1
       13369.530       138.26151       14.032898       1
       13392.486       132.50295       14.351540       1
       13415.442       139.92211       13.980173       1
       13438.398       127.47151       14.164461       1
       13461.354       135.87288       13.818852       1
       13484.310       140.88083       14.194306       1
       13507.267       127.38754       13.610731       1
       13530.223       121.56813       13.902308       1
       13553.179       130.91832       13.586913       1
       13576.135       130.56785       13.935448       1
       13599.091       141.96837       13.628123       1
       13622.047       119.55460       13.794167       1
       13645.003       131.88683       13.593977       1
       13667.959       124.41326       13.700558       1
       13690.915       133.37352       13.573698       1
       13713.871       130.35726       13.787616       1
       13736.827       133.56388       13.599239       1
       13759.783       126.64675       13.853453       1
       13782.739       142.93863       13.743084       1
       13805.695       131.18701       13.913150       1
       13828.652       136.09372       13.660137       1
       13851.608       143.55774       14.059579       1
       13874.564       132.32133       13.544550       1
       13897.520       146.08622       13.998271       1
       13920.476       127.99612       13.390574       1
       13943.432       136.06251       13.884555       1
       13966.388       133.96241       13.463069       1
       13989.344       144.64119       13.840131       1
       14012.300       139.48950       13.360935       1
       14035.256       132.16496       13.541568       1
       14058.212       137.73348       13.303544       1
       14081.168       125.42057       13.391876       1
       14104.124       120.82419       12.971110       1
       14127.081       137.35487       13.358365       1
       14150.037       144.20450       13.160723       1
       14172.993       143.73982       13.454520       1
       14195.949       135.07825       12.912714       1
       14218.905       126.37583       13.206055       1
       14241.861       132.72909       12.870053       1
       14264.817       140.50459       13.247398       1
       14287.773       133.55649       12.785666       1
       14310.729       135.80648       13.068037       1
       14333.685       141.54493       12.771898       1
       14356.641       136.91858       13.806846       1
       14379.597       136.34704       12.645025       1
       14402.553       136.09134       12.932956       1
       14425.510       134.18700       13.261792       1
       14448.466       141.30610       13.049232       1
       14471.422       139.88427       13.813103       1
       14494.378       120.84470       12.822247       1
       14517.334       119.26304       12.414466       1
       14540.290       141.00867       12.950881       1
       14563.246       134.22861       12.594137       1
       14586.202       130.83554       12.738858       1
       14609.158       138.52140       12.626669       1
       14632.114       120.38031       12.755539       1
       14655.070       135.46279       12.618552       1
       14678.026       123.21372       12.779954       1
       14700.982       137.41583       12.625013       1
       14723.939       121.68156       12.731186       1
       14746.895       138.35873       12.644491       1
       14769.851       132.08179       12.845033       1
       14792.807       130.86374       12.589901       1
       14815.763       120.81227       12.731650       1
       14838.719       135.47269       12.495445       1
       14861.675       122.30215       12.695522       1
       14884.631       121.85433       12.288909       1
       14907.587       68.789278       8.7856166       1
       14930.543       117.44137       12.118382       1
       14953.499       123.13293       12.462760       1
       14976.455       117.89156       11.966980       1
       14999.411       118.44382       12.295132       1
       15022.368       118.35759       13.168559       1
       15045.324       117.00599       12.268453       1
       15068.280       154.38082       12.250329       1
       15091.236       137.83110       12.532016       1
       15114.192       121.52173       11.989727       1
       15137.148       128.34140       12.326678       1
       15160.104       128.24640       12.028170       1
       15183.060       125.45034       12.159940       1
       15206.016       137.22453       12.052008       1
       15228.972       125.05724       12.095259       1
       15251.928       131.31727       12.008541       1
       15274.884       123.41977       12.157318       1
       15297.840       138.43442       12.068854       1
       15320.797       105.87676       11.909610       1
       15343.753       124.89926       11.968308       1
       15366.709       106.85639       11.990169       1
       15389.665       128.63574       11.876846       1
       15412.621       129.18246       12.196051       1
       15435.577       129.40764       11.836135       1
       15458.533       126.81034       12.167737       1
       15481.489       127.47667       11.826680       1
       15504.445       109.99924       12.060093       1
       15527.401       130.23530       11.909694       1
       15550.357       118.06849       12.152900       1
       15573.313       130.40544       11.956179       1
       15596.269       73.215365       8.5608066       1
       15619.226       113.04974       11.799213       1
       15642.182       131.88087       12.288905       1
       15665.138       144.23978       12.071135       1
       15688.094       118.49744       12.200832       1
       15711.050       139.79280       11.969969       1
       15734.006       124.44039       12.185394       1
       15756.962       152.05698       12.123787       1
       15779.918       133.78499       12.218199       1
       15802.874       125.35247       11.668661       1
       15825.830       130.24812       12.075868       1
       15848.786       131.43899       11.782982       1
       15871.742       130.20464       12.148007       1
       15894.698       127.59078       11.827812       1
       15917.655       119.29816       12.061268       1
       15940.611       131.43439       11.853783       1
       15963.567       131.35731       12.224448       1
       15986.523       142.57306       12.042403       1
       16009.479       126.62389       12.208126       1
       16032.435       135.96503       11.987624       1
       16055.391       135.70360       12.241537       1
       16078.347       126.30585       11.862850       1
       16101.303       135.32351       12.277866       1
       16124.259       114.32588       11.774488       1
       16147.215       122.44071       12.193974       1
       16170.171       117.72756       11.867993       1
       16193.127       132.50059       12.248463       1
       16216.084       99.284228       10.305995       1
       16239.040       123.50899       12.375887       1
       16261.996       124.24016       12.145069       1
       16284.952       133.45313       4209416.8       1
       16307.908       132.69083       12.247357       1
       16330.864       119.19505       12.425636       1
       16353.820       132.19629       12.271455       1
       16376.776       93.419014       10.950821       1
       16399.732       122.48499       12.180456       1
       16422.688       122.20698       12.483360       1
       16445.644       140.11684       12.380273       1
       16468.600       122.93198       12.584715       1
       16491.556       122.67820       12.309907       1
       16514.513       118.60306       12.793203       1
       16537.469       130.90295       12.748595       1
       16560.425       128.08457       13.469871       1
       16583.381       119.66152       13.397892       1
       16606.337       125.21943       14.472226       1
       16629.293       121.68251       14.851897       1
       16652.249       111.00602       16.133220       1
       16675.205       141.28758       17.168558       1
       16698.161       123.12727       19.066582       1
       16721.117       121.70560       20.481115       1
       16744.073       107.94398       23.240807       1
       16767.029       125.79212       25.488461       0
       16789.985       124.89705       29.829654       0
       16812.942       91.756152       32.478474       0
       16835.898       156.57139       38.581905       0
       16858.854       138.43039       41.955207       0
       16881.810       110.43792       48.325639       0
       16904.766       113.27945       52.650539       0
       16927.722       163.86570       60.879152       0
       16950.678       173.08053       65.729754       0
       16973.634       108.44755       74.868144       0
       16996.590       85.135969       80.199449       0
       17019.546       162.58979       93.090434       0
       17042.502       110.33332       100.39017       0
       17065.458       58.843485       114.09461       0
       17088.414       177.98126       123.14197       0
       17111.371       39.576267       140.71466       0
       17134.327       12.266897       151.39449       0
       17157.283       19.519465       178.83068       0
       17180.239       53.224199       200.02287       0
       17203.195       20.350839       237.98171       0
       17226.151      -253.63974       261.16150       0
       17249.107       420.75123       312.37528       0
       17272.063       175.34048       339.07386       0
       17295.019       64.119521       386.80724       0
       17317.975      -110.33395       415.77044       0
       17340.931      -471.97260       468.76883       0
       17363.887      -244.30893       501.39076       0
