#WAVELENGTH FLUX ERROR MASK
       7477.3830       21511.205       29052.722       0
       7489.2536       31210.028       21908.018       0
       7501.1243       6644.2120       23565.415       0
       7512.9950      -24214.898       15247.856       0
       7524.8657       13644.740       16890.860       0
       7536.7363      -4706.5876       11155.503       0
       7548.6070      -13883.742       11360.135       0
       7560.4777       2922.5489       7154.9389       0
       7572.3483      -4501.4185       7220.7118       0
       7584.2190       928.49010       4593.0113       0
       7596.0897       5475.2381       4878.9020       0
       7607.9604       5569.0909       3196.3475       0
       7619.8310      -2814.3274       3448.2875       0
       7631.7017      -189.31340       2350.7659       0
       7643.5724      -611.69855       2599.5567       0
       7655.4431      -315.41123       1760.4788       0
       7667.3137       3654.5801       1893.2092       0
       7679.1844       118.02483       1244.5836       0
       7691.0551       226.29993       1340.7322       0
       7702.9257       435.20457       887.79755       0
       7714.7964       1114.7062       988.82481       0
       7726.6671       130.98905       669.39398       0
       7738.5378       1082.0054       783.83002       0
       7750.4084       283.24750       546.26698       0
       7762.2791      -330.21213       638.99773       0
       7774.1498       88.064437       546.85761       0
       7786.0205       701.70065       559.64246       0
       7797.8911      -880.26965       702.31425       0
       7809.7618       373.97169       461.85187       0
       7821.6325       128.33303       324.90383       0
       7833.5032       999.35814       380.04820       0
       7845.3738      -104.20699       260.06880       0
       7857.2445       254.99958       306.88135       0
       7869.1152       220.11059       219.94807       0
       7880.9858       288.24359       259.19414       0
       7892.8565       311.52158       188.87818       0
       7904.7272      -330.57825       220.91100       0
       7916.5979       320.46667       168.49227       0
       7928.4685       437.99038       204.81341       0
       7940.3392       161.95138       152.23799       0
       7952.2099       50.596898       183.57277       0
       7964.0806       241.18787       138.69868       0
       7975.9512       244.46608       168.64610       0
       7987.8219       104.92661       128.05440       0
       7999.6926       368.04071       159.19304       0
       8011.5633       247.81947       122.01664       0
       8023.4339       161.50771       148.29533       0
       8035.3046       274.87074       114.54595       0
       8047.1753       440.14622       145.33514       0
       8059.0459       372.32267       111.49843       0
       8070.9166       235.59901       137.81027       0
       8082.7873       213.57745       107.43008       0
       8094.6580       179.34451       132.54842       0
       8106.5286       65.670327       102.16649       0
       8118.3993       196.21179       115.49419       0
       8130.2700       229.81752       92.948827       0
       8142.1407       313.06348       112.62914       0
       8154.0113       257.18493       89.701471       1
       8165.8820       297.14407       109.11021       1
       8177.7527       174.16816       86.170791       1
       8189.6233       186.38935       104.52919       1
       8201.4940       200.00073       83.322141       1
       8213.3647       230.46571       100.71438       1
       8225.2354       271.91536       80.157357       1
       8237.1060       49.725133       94.074663       1
       8248.9767       225.82058       76.280676       1
       8260.8474       182.22127       91.039767       1
       8272.7181       290.43360       72.890708       1
       8284.5887       334.57972       87.949269       1
       8296.4594       316.19649       70.307494       1
       8308.3301       330.98589       84.575574       1
       8320.2008       549.84499       84.580287       1
       8332.0714       261.96730       80.879244       1
       8343.9421       278.21809       65.037627       1
       8355.8128       253.36576       79.040195       1
       8367.6834       274.71639       63.566166       1
       8379.5541       285.88009       76.948076       1
       8391.4248       325.55424       62.468867       1
       8403.2955       294.37255       75.774008       1
       8415.1661       367.38221       61.120195       1
       8427.0368       282.42609       72.799161       1
       8438.9075       256.80341       58.386641       1
       8450.7782       189.46660       69.626184       1
       8462.6488       251.22375       56.647533       1
       8474.5195       316.16804       69.680605       1
       8486.3902       332.50105       55.690540       1
       8498.2608       134.21299       65.844880       1
       8510.1315       251.15104       53.621301       1
       8522.0022       238.70178       64.673337       1
       8533.8729       236.29268       56.164694       1
       8545.7435       300.11442       64.400978       1
       8557.6142       195.53879       51.702020       1
       8569.4849       350.70179       64.902169       1
       8581.3556       330.90416       52.387083       1
       8593.2262       260.33250       63.823585       1
       8605.0969       347.06055       52.065481       1
       8616.9676       221.99037       62.800501       1
       8628.8383       282.85036       51.339965       1
       8640.7089       197.64478       61.017632       1
       8652.5796       369.23326       51.662143       1
       8664.4503       302.25553       60.853973       1
       8676.3209       367.43289       50.298261       1
       8688.1916       294.66670       60.074324       1
       8700.0623       287.53361       48.174225       1
       8711.9330       377.91383       58.957802       1
       8723.8036       282.88938       46.360853       1
       8735.6743       361.86024       57.198380       1
       8747.5450       308.31690       45.278700       1
       8759.4157       248.18276       54.504435       1
       8771.2863       331.16990       44.475369       1
       8783.1570       227.69048       53.573275       1
       8795.0277       244.17276       43.158295       1
       8806.8983       317.87024       52.411772       1
       8818.7690       264.71830       42.001952       1
       8830.6397       251.12949       51.277565       1
       8842.5104       273.24001       41.462514       1
       8854.3810       320.56020       50.981114       1
       8866.2517       282.77416       40.989790       1
       8878.1224       323.88162       50.323978       1
       8889.9931       230.33405       39.857346       1
       8901.8637       288.14609       48.853467       1
       8913.7344       283.31393       39.778419       1
       8925.6051       300.00347       48.755624       1
       8937.4758       255.27485       38.957660       1
       8949.3464       151.78946       46.644111       1
       8961.2171       233.71161       37.963486       1
       8973.0878       269.10279       46.405453       1
       8984.9584       291.03373       37.804685       1
       8996.8291       282.01192       46.054002       1
       9008.6998       269.67889       37.235973       1
       9020.5705       269.09019       45.569378       1
       9032.4411       259.11843       36.711067       1
       9044.3118       290.22702       45.354375       1
       9056.1825       273.91784       36.654400       1
       9068.0532       343.78385       45.787264       1
       9079.9238       268.05894       36.393435       1
       9091.7945       339.50427       44.900714       1
       9103.6652       258.11057       35.518336       1
       9115.5358       301.94068       47.939183       1
       9127.4065       275.81483       36.852880       1
       9139.2772       237.98919       46.560515       1
       9151.1479       252.32373       36.267167       1
       9163.0185       331.76123       46.636268       1
       9174.8892       296.44877       36.146422       1
       9186.7599       344.70850       45.907123       1
       9198.6306       337.65450       35.465846       1
       9210.5012       287.64583       44.559357       1
       9222.3719       326.98547       35.204524       1
       9234.2426       298.55383       58.205871       1
       9246.1133       299.47458       34.783514       1
       9257.9839       347.62936       57.674671       1
       9269.8546       295.88265       34.333778       1
       9281.7253       318.88501       43.347798       1
       9293.5959       194.35052       33.259887       1
       9305.4666       228.25935       42.285360       1
       9317.3373       269.33827       33.431499       1
       9329.2080       232.52972       41.953025       1
       9341.0786       287.45235       33.219391       1
       9352.9493       252.06882       40.402580       1
       9364.8200       248.40124       32.694646       1
       9376.6907       332.24575       41.953176       1
       9388.5613       219.32815       32.355419       1
       9400.4320       273.26940       41.048399       1
       9412.3027       279.99604       32.281305       1
       9424.1733       246.06092       40.205914       1
       9436.0440       280.18051       31.670393       1
       9447.9147       244.74847       39.981579       1
       9459.7854       251.69715       37.853684       1
       9471.6560       226.16430       39.257489       1
       9483.5267       266.02276       30.856285       1
       9495.3974       330.14927       39.609391       1
       9507.2681       259.69966       30.596539       1
       9519.1387       313.01090       39.314460       1
       9531.0094       306.41408       30.569064       1
       9542.8801       222.84454       38.118209       1
       9554.7508       271.30167       29.569526       1
       9566.6214       362.52099       38.772498       1
       9578.4921       276.31122       29.894694       1
       9590.3628       281.59227       37.935025       1
       9602.2334       248.24967       29.397870       1
       9614.1041       294.35136       37.030411       1
       9625.9748       285.79539       29.376014       1
       9637.8455       253.02672       36.621451       1
       9649.7161       253.83794       28.980706       1
       9661.5868       285.95207       36.769157       1
       9673.4575       347.51383       29.167741       1
       9685.3282       242.97082       36.355451       1
       9697.1988       281.49577       28.726507       1
       9709.0695       279.13626       36.054199       1
       9720.9402       278.80488       28.330375       1
       9732.8108       323.39359       36.390593       1
       9744.6815       216.67313       27.854667       1
       9756.5522       211.32817       35.163275       1
       9768.4229       260.39676       27.951914       1
       9780.2935       259.54423       34.995995       1
       9792.1642       240.13403       27.572295       1
       9804.0349       233.06070       34.744270       1
       9815.9056       278.01069       27.674603       1
       9827.7762       249.08220       34.628854       1
       9839.6469       225.03297       27.262816       1
       9851.5176       254.35829       34.709596       1
       9863.3883       240.10495       27.066944       1
       9875.2589       261.68241       34.405889       1
       9887.1296       255.02232       26.957704       1
       9899.0003      -4.6550608       0.0000000       1
       9910.8709       271.18399       27.045541       1
       9922.7416       205.42182       33.970653       1
       9934.6123       265.82472       26.844116       1
       9946.4830       268.73046       34.144059       1
       9958.3536       248.18587       26.531848       1
       9970.2243       184.30593       31.980811       1
       9982.0950       235.78656       26.066085       1
       9993.9657       240.15223       32.909838       1
       10005.836       216.01557       25.733306       1
       10017.707       244.86917       32.677862       1
       10029.578       205.51024       25.413443       1
       10041.448       288.66223       32.832603       1
       10053.319       245.67066       25.698836       1
       10065.190       265.10361       32.729988       1
       10077.060       252.77373       25.717720       1
       10088.931       269.80949       31.744366       1
       10100.802       293.70896       25.807088       1
       10112.672       256.76109       29.352383       1
       10124.543       260.25471       23.832342       1
       10136.414       250.42860       28.899611       1
       10148.284       246.47032       23.443879       1
       10160.155       305.54106       29.460539       1
       10172.026       244.09142       23.497776       1
       10183.896       258.37568       28.786025       1
       10195.767       269.67584       23.542708       1
       10207.638       215.76675       27.571017       1
       10219.508       261.57790       23.276853       1
       10231.379       288.75953       28.715414       1
       10243.250       267.15602       22.922339       1
       10255.120       276.76429       28.446829       1
       10266.991       249.50529       22.659542       1
       10278.862       239.15361       27.494312       1
       10290.732       248.19143       22.382026       1
       10302.603       258.75960       27.554145       1
       10314.474       252.96283       22.382372       1
       10326.345       259.03698       27.359380       1
       10338.215       236.69149       22.228068       1
       10350.086       270.60827       27.475450       1
       10361.957       235.53166       22.047219       1
       10373.827       244.93775       27.374289       1
       10385.698       235.09442       22.165764       1
       10397.569       238.74728       27.190136       1
       10409.439       250.88503       22.203263       1
       10421.310       243.93727       27.056392       1
       10433.181       302.24390       22.246042       1
       10445.051       281.44569       27.218765       1
       10456.922       278.31016       22.150627       1
       10468.793       252.03683       26.866477       1
       10480.663       269.43535       22.259881       1
       10492.534       238.62558       26.886509       1
       10504.405       242.69136       26.843537       1
       10516.275       236.49053       26.747300       1
       10528.146       225.59405       22.393446       1
       10540.017       258.31593       27.186743       1
       10551.887       256.78731       22.065844       1
       10563.758       252.80519       27.158940       1
       10575.629       252.34814       21.910443       1
       10587.499       275.57538       27.020424       1
       10599.370       264.62477       21.765694       1
       10611.241       315.25452       27.178468       1
       10623.111       250.38111       21.587969       1
       10634.982       217.93602       26.062064       1
       10646.853       215.69573       20.803444       1
       10658.723       266.15576       26.194171       1
       10670.594       243.17627       20.870913       1
       10682.465       291.90646       26.560936       1
       10694.335       253.69718       21.178139       1
       10706.206       267.65012       25.872998       1
       10718.077       222.26501       20.898529       1
       10729.947       268.62806       25.724586       1
       10741.818       218.41581       20.879854       1
       10753.689       248.42785       26.046710       1
       10765.559       225.17637       20.969270       1
       10777.430       259.69778       26.006337       1
       10789.301       257.77715       21.069499       1
       10801.171       268.35742       26.039553       1
       10813.042       248.35670       20.923134       1
       10824.913       274.16549       26.044561       1
       10836.783       217.94794       20.532556       1
       10848.654       263.70987       25.814836       1
       10860.525       252.11777       20.740970       1
       10872.395       249.50350       25.358784       1
       10884.266       219.48943       20.478068       1
       10896.137       283.37172       25.704225       1
       10908.007       234.85884       20.495575       1
       10919.878       272.41965       25.634841       1
       10931.749       220.85977       20.481462       1
       10943.620       299.81732       25.832811       1
       10955.490       208.84965       19.880498       1
       10967.361       266.21386       25.633781       1
       10979.232       242.39297       20.456871       1
       10991.102       216.27309       25.046548       1
       11002.973       225.41745       20.369511       1
       11014.844       241.40953       25.120298       1
       11026.714       224.05986       20.249469       1
       11038.585       263.10871       25.221683       1
       11050.456       201.21617       34.577381       1
       11062.326       263.48361       25.357003       1
       11074.197       234.52116       20.332457       1
       11086.068       249.28261       25.107902       1
       11097.938       229.57418       20.300432       1
       11109.809       248.12871       25.003313       1
       11121.680       254.92513       21.425157       1
       11133.550       288.90499       28.048212       1
       11145.421       255.72520       21.802935       1
       11157.292       266.23477       27.998680       1
       11169.162       240.29374       21.751345       1
       11181.033       238.30355       27.769152       1
       11192.904       269.25018       21.299688       1
       11204.774       289.63247       27.942631       0
       11216.645       230.57976       21.760119       0
       11228.516       270.85216       27.554279       0
       11240.386       250.77404       21.928506       0
       11252.257       188.28851       27.322328       0
       11264.128       251.35914       21.858341       0
       11275.998       234.58796       27.449819       0
       11287.869       228.57132       21.666874       0
       11299.740       247.93765       27.741642       0
       11311.610       197.31007       21.764584       0
       11323.481       249.49150       28.565096       0
       11335.352       281.45847       23.483326       0
       11347.222       243.80498       30.625682       0
       11359.093       273.14722       31.717630       0
       11370.964       261.01236       34.985645       0
       11382.834       279.39166       36.692012       0
       11394.705       343.50091       64.098371       0
       11406.576       222.91092       44.809750       0
       11418.446       222.41444       51.832792       0
       11430.317       304.51639       46.944405       0
       11442.188       338.82375       67.587662       0
       11454.058       313.40323       58.821219       0
       11465.929       147.80308       82.580197       0
       11477.800       204.76902       71.960315       0
       11489.670       394.06626       103.09999       0
       11501.541       205.95460       88.246257       0
       11513.412       272.56723       126.08518       0
       11525.282       122.69453       111.81496       0
       11537.153       317.85845       169.19814       0
       11549.024       156.87070       154.95449       0
       11560.895       507.02623       246.48041       0
       11572.765       681.60673       238.52236       0
       11584.636      -125.71358       368.36942       0
       11596.507       1023.5716       362.46220       0
       11608.377      -387.84077       553.00085       0
       11620.248       555.93794       530.65679       0
       11632.119       195.05437       810.42466       0
       11643.989      -1454.9591       753.96544       0
       11655.860      -1063.9396       1241.5235       0
       11667.731       978.36559       1278.5317       0
       11679.601      -1515.1552       2089.0057       0
       11691.472      -1044.3906       2135.6174       0
       11703.343      -1317.4408       3571.1335       0
       11715.213       4881.5901       3526.2895       0
       11727.084      -2138.5530       5018.6832       0
       11738.955      -1797.9206       4118.9472       0
