#WAVELENGTH FLUX ERROR MASK
       7490.1032       89317.149       648.44831       0
       7502.1639       72977.794       529.91018       0
       7514.2247       62740.465       512.41807       0
       7526.2854       63285.142       451.39540       0
       7538.3461       42635.017       434.11102       0
       7550.4068       36668.831       371.59737       0
       7562.4676       21382.194       345.49264       0
       7574.5283       16463.591       290.35755       0
       7586.5890       7452.1531       313.54876       0
       7598.6497       9200.6884       236.91423       0
       7610.7105       7510.0879       232.54027       0
       7622.7712       10446.263       204.24821       0
       7634.8319       10945.280       199.51390       0
       7646.8927       6871.9303       174.66503       0
       7658.9534       7019.4199       196.55699       0
       7671.0141       3970.1130       147.13116       0
       7683.0748       3233.6416       142.71141       0
       7695.1356       3682.2182       123.57742       0
       7707.1963       3144.2719       120.41990       0
       7719.2570       2138.1086       106.13790       0
       7731.3177       3479.6092       106.43023       0
       7743.3785       1945.6876       94.911598       0
       7755.4392       2027.3456       96.396487       0
       7767.4999       1575.2284       87.472510       0
       7779.5606       1238.9316       88.272596       0
       7791.6214       1465.6002       82.132148       0
       7803.6821       1039.8881       80.050452       0
       7815.7428       1012.9574       71.988699       0
       7827.8036       987.26914       72.249162       0
       7839.8643       1026.1336       64.994295       0
       7851.9250       1181.9284       68.824457       0
       7863.9857       803.97676       59.299259       0
       7876.0465       740.77282       59.835336       0
       7888.1072       808.90043       54.508425       0
       7900.1679       537.87034       58.828390       0
       7912.2286       640.16613       51.556521       0
       7924.2894       733.94508       60.851811       0
       7936.3501       746.50343       49.507678       0
       7948.4108       626.83801       50.608504       0
       7960.4715       646.27017       46.429123       0
       7972.5323       905.18835       48.626889       0
       7984.5930       421.86064       44.580673       0
       7996.6537       901.08859       46.784072       0
       8008.7145       715.54215       44.280492       0
       8020.7752       738.20369       45.420383       0
       8032.8359       528.48318       46.287574       0
       8044.8966       904.05160       47.212688       0
       8056.9574       747.78548       44.473677       0
       8069.0181       712.58559       47.488116       0
       8081.0788       518.19378       51.147305       0
       8093.1395       563.18880       42.696854       0
       8105.2003       748.66001       52.834475       0
       8117.2610       503.69107       41.017387       0
       8129.3217       584.73191       39.428338       0
       8141.3825       399.01992       40.142224       0
       8153.4432       483.39011       38.944635       1
       8165.5039       530.18134       40.420417       1
       8177.5646       426.40957       37.479649       1
       8189.6254       307.72482       39.223238       1
       8201.6861       274.66068       36.615880       1
       8213.7468       390.00478       38.147244       1
       8225.8075       563.63123       36.478777       1
       8237.8683       338.05405       37.834897       1
       8249.9290       515.56112       44.649824       1
       8261.9897       468.77843       37.163676       1
       8274.0504       341.96949       43.435220       1
       8286.1112       343.42281       35.894591       1
       8298.1719       343.08930       34.459039       1
       8310.2326       456.80245       35.942146       1
       8322.2934       494.14698       33.952028       1
       8334.3541       503.69196       35.048175       1
       8346.4148       517.67856       33.347961       1
       8358.4755       400.64656       33.734312       1
       8370.5363       500.47102       32.526337       1
       8382.5970       411.25635       33.654561       1
       8394.6577       550.15536       32.863858       1
       8406.7184       427.93259       33.095786       1
       8418.7792       514.54272       32.344973       1
       8430.8399       523.71127       32.993649       1
       8442.9006       416.39440       30.850394       1
       8454.9613       497.26349       32.505436       1
       8467.0221       418.93607       30.225083       1
       8479.0828       452.29578       34.323651       1
       8491.1435       408.62248       29.753447       1
       8503.2043       407.80020       35.979748       1
       8515.2650       413.12696       29.506486       1
       8527.3257       448.82230       31.412860       1
       8539.3864       403.53801       29.154391       1
       8551.4472       397.49425       30.719947       1
       8563.5079       434.36438       29.585336       1
       8575.5686       458.23096       32.334219       1
       8587.6293       494.65527       29.151355       1
       8599.6901       364.61145       36.446992       1
       8611.7508       391.65071       29.424593       1
       8623.8115       443.33903       30.953012       1
       8635.8722       324.57780       28.803754       1
       8647.9330       404.41659       30.553364       1
       8659.9937       423.90536       28.408041       1
       8672.0544       449.44408       30.409252       1
       8684.1152       385.38193       27.951801       1
       8696.1759       430.08469       29.623052       1
       8708.2366       431.71883       27.786681       1
       8720.2973       345.14661       28.757720       1
       8732.3581       405.77160       27.157988       1
       8744.4188       322.17143       28.643939       1
       8756.4795       372.62554       27.144365       1
       8768.5402       383.22516       28.219735       1
       8780.6010       322.00635       26.401303       1
       8792.6617       341.86726       27.935936       1
       8804.7224       368.25235       26.622339       1
       8816.7832       300.66374       27.281343       1
       8828.8439       329.67502       26.124509       1
       8840.9046       407.91841       27.107662       1
       8852.9653       344.10064       26.024100       1
       8865.0261       325.76839       30.760132       1
       8877.0868       356.53019       25.768349       1
       8889.1475       379.94915       27.585345       1
       8901.2082       366.98559       25.474027       1
       8913.2690       273.82302       27.011690       1
       8925.3297       411.84913       24.977555       1
       8937.3904       390.82321       26.388717       1
       8949.4511       379.54462       25.036927       1
       8961.5119       388.62945       26.353390       1
       8973.5726       416.92638       24.582751       1
       8985.6333       429.59433       25.849393       1
       8997.6941       370.59892       24.449750       1
       9009.7548       394.40369       25.607011       1
       9021.8155       388.32071       24.048067       1
       9033.8762       251.84066       24.931185       1
       9045.9370       334.51561       23.850486       1
       9057.9977       358.06425       25.252590       1
       9070.0584       413.88258       24.689646       1
       9082.1191       384.32890       24.986484       1
       9094.1799       424.03251       24.716613       1
       9106.2406       377.96641       25.453757       1
       9118.3013       404.99551       23.892820       1
       9130.3620       340.67739       26.845019       1
       9142.4228       378.22267       23.549405       1
       9154.4835       377.90131       24.328438       1
       9166.5442       333.80376       23.293795       1
       9178.6050       445.72460       24.968920       1
       9190.6657       352.49414       23.231381       1
       9202.7264       383.17057       24.509000       1
       9214.7871       323.93595       22.757387       1
       9226.8479       347.28979       23.816351       1
       9238.9086       369.37643       22.682795       1
       9250.9693       339.85623       23.719574       1
       9263.0300       300.03520       22.574922       1
       9275.0908       345.25377       24.071057       1
       9287.1515       312.52963       22.158664       1
       9299.2122       408.81195       23.775744       1
       9311.2730       361.52860       22.409055       1
       9323.3337       332.90154       23.659704       1
       9335.3944       392.74947       22.349948       1
       9347.4551       305.43504       23.349692       1
       9359.5159       402.77480       22.224584       1
       9371.5766       364.62208       23.919391       1
       9383.6373       362.29800       22.209094       1
       9395.6980       360.85404       23.354380       1
       9407.7588       404.69438       22.156775       1
       9419.8195       393.64643       23.610078       1
       9431.8802       373.89494       23.518387       1
       9443.9409       357.21356       23.018251       1
       9456.0017       355.03614       21.716430       1
       9468.0624       363.99180       22.977952       1
       9480.1231       371.84152       21.601526       1
       9492.1839       396.45024       24.019825       1
       9504.2446       368.64197       21.506212       1
       9516.3053       379.22061       22.811576       1
       9528.3660       341.18363       21.233873       1
       9540.4268       337.53499       23.652149       1
       9552.4875       354.91472       21.338239       1
       9564.5482       359.75817       22.439049       1
       9576.6089       341.25472       21.117789       1
       9588.6697       391.85735       22.561880       1
       9600.7304       361.10155       21.070876       1
       9612.7911       361.96961       22.180804       1
       9624.8518       382.74633       21.029063       1
       9636.9126       380.85503       22.421301       1
       9648.9733       356.52848       20.871503       1
       9661.0340       350.51656       22.135638       1
       9673.0948       340.04947       20.889454       1
       9685.1555       328.14298       21.604861       1
       9697.2162       362.77482       20.985367       1
       9709.2769       378.22064       21.873486       1
       9721.3377       376.81457       20.736598       1
       9733.3984       338.48269       21.665980       1
       9745.4591       331.80306       20.560192       1
       9757.5198       294.86127       21.262873       1
       9769.5806       328.54963       20.636343       1
       9781.6413       331.86806       21.524012       1
       9793.7020       367.83305       20.851748       1
       9805.7628       329.14368       21.419378       1
       9817.8235       328.84614       20.442647       1
       9829.8842       306.06066       21.302822       1
       9841.9449       368.14220       20.734031       1
       9854.0057       315.28706       21.389944       1
       9866.0664       368.23267       20.408202       1
       9878.1271       353.53433       21.376711       1
       9890.1878       364.65021       20.577980       1
       9902.2486       351.52289       21.513259       1
       9914.3093       299.99309       20.011661       1
       9926.3700       314.24893       21.213143       1
       9938.4307       324.59763       20.089350       1
       9950.4915       386.91997       21.502623       1
       9962.5522       329.38556       20.492258       1
       9974.6129       395.05889       21.445587       1
       9986.6737       333.37843       19.895377       1
       9998.7344       361.48401       21.400234       1
       10010.795       342.51362       20.134189       1
       10022.856       357.20170       21.003014       1
       10034.917       334.18609       19.606885       1
       10046.977       394.16643       21.194610       1
       10059.038       359.11566       20.132235       1
       10071.099       320.95629       20.835878       1
       10083.159       351.63978       19.639352       1
       10095.220       252.79896       20.162608       1
       10107.281       310.89720       19.531225       1
       10119.342       316.59153       20.741799       1
       10131.402       273.08936       19.454129       1
       10143.463       342.12754       21.137224       1
       10155.524       317.77638       19.448679       1
       10167.585       363.97361       20.781090       1
       10179.645       418.00459       20.231185       1
       10191.706       308.50805       20.429620       1
       10203.767       345.24087       19.893753       1
       10215.827       363.39692       20.681421       1
       10227.888       295.08373       19.179908       1
       10239.949       297.40524       24.606389       1
       10252.010       313.37826       19.168783       1
       10264.070       330.33331       20.319172       1
       10276.131       332.15072       19.351013       1
       10288.192       341.51426       20.114461       1
       10300.253       299.82749       19.306921       1
       10312.313       318.14037       19.862193       1
       10324.374       339.72267       19.018841       1
       10336.435       307.51915       19.944958       1
       10348.495       286.94074       18.698976       1
       10360.556       326.06841       19.898658       1
       10372.617       309.88190       19.321290       1
       10384.678       339.87569       20.153040       1
       10396.738       346.11814       18.832996       1
       10408.799       316.48355       19.899678       1
       10420.860       285.59297       18.613136       1
       10432.921       334.09270       19.759197       1
       10444.981       279.36351       18.610605       1
       10457.042       321.63132       19.549648       1
       10469.103       298.88230       19.835140       1
       10481.163       319.85387       19.774689       1
       10493.224       324.26195       18.679439       1
       10505.285       313.76562       20.671893       1
       10517.346       330.53187       18.842251       1
       10529.406       328.86853       19.651635       1
       10541.467       327.52959       20.137687       1
       10553.528       303.42382       19.718418       1
       10565.589       303.53211       18.750444       1
       10577.649       280.37165       20.466960       1
       10589.710       299.99131       18.648330       1
       10601.771       313.38100       19.540792       1
       10613.831       295.91286       18.456394       1
       10625.892       277.40645       19.356289       1
       10637.953       285.31851       18.407922       1
       10650.014       289.49371       20.225311       1
       10662.074       273.68364       18.198812       1
       10674.135       264.36495       21.939834       1
       10686.196       288.12373       18.183166       1
       10698.257       272.09088       18.875253       1
       10710.317       275.37122       18.175288       1
       10722.378       250.99730       19.063992       1
       10734.439       270.65019       18.261045       1
       10746.499       253.89299       18.994981       1
       10758.560       280.55506       18.350680       1
       10770.621       277.14562       20.175295       1
       10782.682       279.26428       18.272833       1
       10794.742       280.73816       19.142137       1
       10806.803       322.18004       18.278176       1
       10818.864       266.60257       18.908594       1
       10830.925       291.78792       18.270375       1
       10842.985       284.77594       19.167655       1
       10855.046       282.31013       18.338098       1
       10867.107       287.54345       19.240840       1
       10879.167       292.50737       17.964519       1
       10891.228       281.98817       18.876887       1
       10903.289       297.93735       18.163579       1
       10915.350       287.47029       19.041172       1
       10927.410       274.64091       17.843797       1
       10939.471       278.62926       18.911926       1
       10951.532       305.54594       18.259931       1
       10963.593       303.72545       18.916195       1
       10975.653       303.17646       17.938746       1
       10987.714       303.89338       19.705733       1
       10999.775       296.57764       18.273839       1
       11011.835       284.00861       18.582118       1
       11023.896       298.45036       23.186861       1
       11035.957       286.05495       18.764810       1
       11048.018       306.85286       17.962435       1
       11060.078       319.09430       24.370959       1
       11072.139       308.51664       18.352359       1
       11084.200       278.98791       18.502698       1
       11096.261       269.81017       17.805631       1
       11108.321       276.61054       18.664117       1
       11120.382       268.75336       19.955652       1
       11132.443       292.27710       18.834762       1
       11144.503       315.96412       17.895583       1
       11156.564       278.16817       18.548744       1
       11168.625       308.25748       18.280582       1
       11180.686       265.69967       18.622520       1
       11192.746       281.50928       17.846864       1
       11204.807       269.49255       18.962044       0
       11216.868       255.70472       19.017441       0
       11228.929       318.95111       18.999736       0
       11240.989       264.79991       17.792711       0
       11253.050       287.16261       18.857041       0
       11265.111       289.11177       17.780691       0
       11277.171       327.45687       19.063879       0
       11289.232       327.06426       17.955985       0
       11301.293       291.43052       19.033623       0
       11313.354       245.59089       17.786014       0
       11325.414       260.73993       18.871948       0
       11337.475       286.11658       18.167553       0
       11349.536       307.41967       19.394877       0
       11361.597       269.98479       18.493900       0
       11373.657       297.17369       20.236729       0
       11385.718       276.38967       19.478867       0
       11397.779       319.23167       21.444702       0
       11409.839       266.25886       21.091005       0
       11421.900       310.31177       23.416744       0
       11433.961       318.88924       23.743608       0
       11446.022       321.50460       26.195336       0
       11458.082       270.72378       27.691751       0
       11470.143       365.71096       29.930181       0
       11482.204       299.39015       30.853828       0
       11494.265       444.55511       33.542917       0
       11506.325       389.74603       33.600672       0
       11518.386       492.83770       36.985897       0
       11530.447       497.17363       36.903415       0
       11542.507       321.92393       40.499866       0
       11554.568       250.95099       43.807519       0
       11566.629       575.72428       50.455364       0
       11578.690       434.89322       48.397430       0
       11590.750       642.04891       61.183676       0
       11602.811       985.67994       69.753946       0
       11614.872       763.60604       71.170862       0
       11626.932       497.48391       74.669449       0
       11638.993       572.67369       87.472193       0
       11651.054       1043.0623       90.560100       0
       11663.115       1636.6188       104.47955       0
       11675.175       1200.7301       113.61721       0
       11687.236       1341.8255       133.59636       0
       11699.297       3478.0218       143.89429       0
       11711.358       4489.9038       171.39546       0
       11723.418       4694.2071       186.79125       0
       11735.479       2628.8975       233.66473       0
       11747.540       2139.8533       230.33107       0
       11759.600      -1661.9687       247.77211       0
       11771.661       4514.6155       240.03374       0
       11783.722       4194.6902       250.61304       0
       11795.783       4005.5873       271.54970       0
       11807.843       3684.6037       246.61643       0
       11819.904       4798.9608       272.41660       0
