#WAVELENGTH FLUX ERROR MASK
       10193.918       2884.9589       273.84855       0
       10216.680      -836.19534       249.24067       0
       10239.442       3032.9114       227.17295       0
       10262.204       891.76795       214.26823       0
       10284.966       1734.1767       196.27536       0
       10307.728      -1891.4366       185.15500       0
       10330.490      -822.76393       169.92040       0
       10353.252      -1084.4911       166.62284       0
       10376.014       2673.1734       158.46033       0
       10398.776       1017.2363       154.60501       0
       10421.538       1605.9149       143.04692       0
       10444.300      -339.93510       0.0000000       0
       10467.062       418.54967       124.22071       0
       10489.825      -194.30521       116.51622       0
       10512.587       50.020088       104.10389       0
       10535.349       853.27256       100.37671       0
       10558.111       461.59887       90.628821       0
       10580.873       456.54077       87.317963       0
       10603.635       771.72876       80.812686       0
       10626.397       410.13282       78.258548       0
       10649.159       671.54490       73.111370       0
       10671.921      -60.665589       68.977729       0
       10694.683       588.17125       63.268356       0
       10717.445       610.61727       60.729295       0
       10740.207       319.96568       54.005798       0
       10762.969       402.35046       50.721388       0
       10785.731       465.01324       45.952520       0
       10808.493       478.19755       42.909039       0
       10831.255       295.98067       39.183881       0
       10854.017       335.98341       37.900282       0
       10876.779       379.23567       35.692506       0
       10899.541       313.00287       34.789653       0
       10922.303       338.37954       32.790542       0
       10945.065       298.84435       32.597488       0
       10967.827       372.70979       31.272538       0
       10990.590       428.92061       31.024699       0
       11013.352       323.67369       28.957244       1
       11036.114       353.68785       28.971128       1
       11058.876       381.52916       27.665343       1
       11081.638       382.02334       27.419352       1
       11104.400       423.59592       26.527597       1
       11127.162       374.16876       26.647022       1
       11149.924       433.12181       25.723817       1
       11172.686       379.91880       25.808935       1
       11195.448       301.42090       24.898408       1
       11218.210       436.70633       25.776606       1
       11240.972       342.10440       24.805603       1
       11263.734       341.30620       25.279922       1
       11286.496       389.87716       24.809042       1
       11309.258       304.39015       24.741235       1
       11332.020       347.22407       24.294984       1
       11354.782       352.32971       24.952239       1
       11377.544       397.86961       24.411630       1
       11400.306       384.70175       24.890314       1
       11423.068       408.77711       24.135122       1
       11445.830      -4.0104161       0.0000000       1
       11468.592       423.58066       23.700866       1
       11491.355       349.41070       24.362501       1
       11514.117       400.20993       23.680878       1
       11536.879       322.42831       24.171822       1
       11559.641       365.75288       23.760944       1
       11582.403       353.33420       24.303208       1
       11605.165       336.89984       23.545534       1
       11627.927       399.56049       24.360455       1
       11650.689       416.27345       25.834628       1
       11673.451       371.07096       24.012795       1
       11696.213       354.03240       24.294841       1
       11718.975       349.17474       23.714804       1
       11741.737       383.56193       24.195942       1
       11764.499       330.72172       23.288260       1
       11787.261       393.42251       24.055870       1
       11810.023       344.01263       25.275889       1
       11832.785       343.01420       23.631096       1
       11855.547       358.51978       23.159549       1
       11878.309       355.19548       23.338461       1
       11901.071       334.81509       22.777521       1
       11923.833       359.23432       23.411624       1
       11946.595       353.32476       22.536934       1
       11969.357       365.65233       23.281218       1
       11992.120       316.07332       22.398207       1
       12014.882       342.66716       23.037377       1
       12037.644       314.29414       22.133308       1
       12060.406       348.83645       22.900074       1
       12083.168       357.74410       22.468120       1
       12105.930       345.07116       22.751606       1
       12128.692       357.39097       22.322515       1
       12151.454       356.76290       22.765295       1
       12174.216       341.40587       22.049987       1
       12196.978       345.14321       22.570726       1
       12219.740       356.37928       22.235948       1
       12242.502       175.04238       15.028396       1
       12265.264       316.64822       21.906272       1
       12288.026       325.74269       22.085354       1
       12310.788       342.89938       21.837787       1
       12333.550       328.81518       22.231689       1
       12356.312       336.16133       21.786119       1
       12379.074       359.82536       22.300294       1
       12401.836       336.09877       21.714355       1
       12424.598       305.25266       21.884700       1
       12447.360       295.68304       21.530888       1
       12470.122       358.69057       22.167561       1
       12492.885       397.69364       22.106089       1
       12515.647       384.64796       22.544364       1
       12538.409       358.56176       21.683829       1
       12561.171       367.47014       22.248419       1
       12583.933       447.94012       22.647272       1
       12606.695       589.32240       24.383696       1
       12629.457       704.10626       24.983636       1
       12652.219       783.34088       25.878463       1
       12674.981       746.90780       25.142294       1
       12697.743       714.55447       24.965061       1
       12720.505       606.80446       23.866023       1
       12743.267       653.15383       24.071603       1
       12766.029       495.39294       22.051865       1
       12788.791       468.91471       22.552235       1
       12811.553       396.05230       21.609612       1
       12834.315       319.13219       21.257568       1
       12857.077       306.87024       20.883926       1
       12879.839       324.46217       21.365210       1
       12902.601       333.27491       20.852693       1
       12925.363       351.01484       21.413223       1
       12948.125       342.17409       20.808720       1
       12970.887       313.11032       21.013838       1
       12993.650       305.28631       20.547107       1
       13016.412       320.38782       20.998212       1
       13039.174       303.63013       20.574668       1
       13061.936       324.10561       21.878785       1
       13084.698       298.16999       20.248558       1
       13107.460       306.51233       21.679684       1
       13130.222       351.46348       20.428212       1
       13152.984       345.55923       21.768296       1
       13175.746       373.71708       20.744889       1
       13198.508       321.24423       21.227612       1
       13221.270       319.73790       20.272868       1
       13244.032       316.12435       21.462166       1
       13266.794       307.68753       20.128396       1
       13289.556       286.24660       21.023058       1
       13312.318       320.48923       19.796965       1
       13335.080       283.46837       20.932291       1
       13357.842       351.71162       19.806271       1
       13380.604       347.14018       21.554969       1
       13403.366       346.41478       20.279273       1
       13426.128       326.23565       21.326757       1
       13448.890       299.65175       19.690244       1
       13471.653       347.66303       21.360230       1
       13494.415       332.57801       19.472843       1
       13517.177       357.60311       21.360895       1
       13539.939       351.82229       19.985232       1
       13562.701       335.01501       20.948866       1
       13585.463       339.62574       19.697351       1
       13608.225       395.01554       22.995561       1
       13630.987     -0.62772529       0.0000000       1
       13653.749       375.88394       21.449671       1
       13676.511       319.08140       19.268546       1
       13699.273       357.47708       21.204798       1
       13722.035       359.77780       19.911736       1
       13744.797       361.84891       21.375535       1
       13767.559       348.73076       19.779535       1
       13790.321       396.21503       21.666001       1
       13813.083       345.00543       19.896597       1
       13835.845       420.72157       21.817883       1
       13858.607       324.42131       19.760815       1
       13881.369       331.32436       21.128120       1
       13904.131       355.60567       21.069976       1
       13926.893       316.40100       20.911839       1
       13949.655       309.26455       19.572019       1
       13972.418       344.74764       20.874588       1
       13995.180       333.00660       19.758678       1
       14017.942       311.44771       20.201521       1
       14040.704       328.17331       19.715409       1
       14063.466       324.01138       20.545720       1
       14086.228       278.30391       19.309831       1
       14108.990       317.87786       20.446341       1
       14131.752       321.77099       19.553414       1
       14154.514       322.48400       20.227780       1
       14177.276       286.15205       19.201765       1
       14200.038       267.60965       19.900800       1
       14222.800       302.08481       19.487313       1
       14245.562       273.95993       20.401625       1
       14268.324       300.43199       19.256229       1
       14291.086       277.56595       20.246612       1
       14313.848       310.25281       18.888260       1
       14336.610       277.05833       19.974957       1
       14359.372       320.65896       19.121005       1
       14382.134       287.63658       20.142320       1
       14404.896       302.54699       19.210219       1
       14427.658       270.25207       20.028453       1
       14450.420       285.35546       18.642624       1
       14473.183       285.97590       19.027985       1
       14495.945       319.92242       18.914237       1
       14518.707       280.79579       19.026859       1
       14541.469       302.11634       19.084726       1
       14564.231       290.38721       18.861275       1
       14586.993       295.53016       18.989984       1
       14609.755       292.34263       19.036462       1
       14632.517       300.00448       18.898988       1
       14655.279       269.75492       18.886873       1
       14678.041       311.57692       19.013991       1
       14700.803       286.98725       19.279132       1
       14723.565       284.09032       18.929670       1
       14746.327       261.58853       19.135828       1
       14769.089       295.30033       19.600418       1
       14791.851       118.94328       14.015887       1
       14814.613       268.18987       18.820054       1
       14837.375       238.87830       18.855422       1
       14860.137       255.34414       18.621060       1
       14882.899       270.16151       19.103519       1
       14905.661       259.41872       18.671954       1
       14928.423       281.17375       19.063314       1
       14951.185       244.88330       18.416504       1
       14973.948       270.19733       18.889652       1
       14996.710       286.54619       18.709937       1
       15019.472       251.27133       18.666162       1
       15042.234       277.93438       18.568349       1
       15064.996       264.17863       18.805164       1
       15087.758       278.97188       18.545568       1
       15110.520       258.57844       18.603457       1
       15133.282       277.94471       18.692931       1
       15156.044       259.86013       18.766164       1
       15178.806       269.20369       18.546606       1
       15201.568       281.06505       18.985987       1
       15224.330       282.91813       18.507761       1
       15247.092       280.49741       18.822805       1
       15269.854       292.21510       18.716036       1
       15292.616       266.29582       18.828163       1
       15315.378       281.48312       18.644108       1
       15338.140       259.58244       18.739841       1
       15360.902       273.45682       18.576641       1
       15383.664       276.32062       18.816502       1
       15406.426       268.69366       18.473757       1
       15429.188       242.43195       18.744555       1
       15451.950       290.92296       18.779619       1
       15474.713       288.13547       19.009682       1
       15497.475       269.38821       18.564304       1
       15520.237       237.17675       18.681826       1
       15542.999       265.69742       18.551059       1
       15565.761       250.92086       18.800924       1
       15588.523       276.38624       18.564512       1
       15611.285       246.36999       18.791823       1
       15634.047       266.20297       18.576496       1
       15656.809       241.68691       18.684244       1
       15679.571       270.68437       18.520957       1
       15702.333       270.66891       18.820641       1
       15725.095       255.07555       18.467472       1
       15747.857       270.04958       18.845252       1
       15770.619       276.71946       18.579787       1
       15793.381       237.66152       18.648965       1
       15816.143       239.16366       18.232411       1
       15838.905       307.70853       18.230017       1
       15861.667       282.56631       18.481049       1
       15884.429       267.83128       17.941783       1
       15907.191       230.33850       18.137029       1
       15929.953       295.09131       18.121643       1
       15952.715       251.79851       18.447075       1
       15975.478       253.52289       17.696022       1
       15998.240       258.00979       18.305116       1
       16021.002       284.57552       17.749260       1
       16043.764       265.82249       18.456553       1
       16066.526       248.85576       17.783783       1
       16089.288       260.18419       18.436325       1
       16112.050       255.67832       17.990596       1
       16134.812       230.27548       18.225730       1
       16157.574       266.51210       17.986418       1
       16180.336       277.36545       18.553876       1
       16203.098       254.56519       18.055230       1
       16225.860       279.95970       18.621769       1
       16248.622       262.63435       18.135169       1
       16271.384       284.49264       18.848957       1
       16294.146       229.60624       17.927638       1
       16316.908       253.40512       18.462242       1
       16339.670       253.83180       18.079288       1
       16362.432       248.57795       18.595254       1
       16385.194       281.61050       18.363435       1
       16407.956       258.62475       18.735769       1
       16430.718       243.35737       18.124380       1
       16453.481       254.91112       18.629769       1
       16476.243       227.86982       17.858297       1
       16499.005       285.94613       19.113030       1
       16521.767       214.99574       18.216997       1
       16544.529       263.47398       19.403853       1
       16567.291       247.59448       19.213104       1
       16590.053       237.99322       19.426757       1
       16612.815       268.78024       20.099615       1
       16635.577       248.12400       20.960559       1
       16658.339       226.64989       21.470009       1
       16681.101       260.97178       23.110608       1
       16703.863       240.20817       23.580608       1
       16726.625       305.79107       25.868463       1
       16749.387       370.94344       26.934237       1
       16772.149       250.69524       28.704890       0
       16794.911       253.56873       29.536554       0
       16817.673       280.08398       32.426432       0
       16840.435       332.48767       33.658503       0
       16863.197       250.47926       35.946592       0
       16885.959       238.74781       37.055987       0
       16908.721       277.22196       40.283048       0
       16931.483       272.95354       41.491920       0
       16954.246       398.35022       44.907706       0
       16977.008       359.14909       44.500477       0
       16999.770       287.21063       49.787805       0
       17022.532       248.55394       50.745786       0
       17045.294       318.51971       54.702439       0
       17068.056       368.12055       56.821714       0
       17090.818      -88.448674       59.968595       0
       17113.580       389.18906       63.562119       0
       17136.342       140.09706       69.428060       0
       17159.104       185.28664       71.196346       0
       17181.866       458.49198       79.652560       0
       17204.628       528.92770       83.201174       0
       17227.390       1093.7817       90.884987       0
       17250.152       249.79974       96.795011       0
       17272.914      -30.057330       100.98728       0
