#WAVELENGTH FLUX ERROR MASK
       7490.1032       163267.54       32274.490       0
       7502.1639       36187.193       24686.975       0
       7514.2247       93851.536       22414.383       0
       7526.2854       36936.484       17814.449       0
       7538.3461       85663.401       16342.862       0
       7550.4068       28651.083       11953.743       0
       7562.4676       42580.998       12747.282       0
       7574.5283       28846.649       7669.0166       0
       7586.5890       37891.281       6643.8223       0
       7598.6497       9957.1075       5049.5643       0
       7610.7105       22029.419       4593.1236       0
       7622.7712       12474.054       3656.3845       0
       7634.8319       15739.294       3407.1720       0
       7646.8927       5966.8368       2697.5748       0
       7658.9534       9366.2058       2491.3598       0
       7671.0141       4299.0463       1931.1532       0
       7683.0748       12159.934       1807.8747       0
       7695.1356       2318.6406       1351.2744       0
       7707.1963       8048.3490       1247.7500       0
       7719.2570       3329.9099       1001.3864       0
       7731.3177       4997.4628       971.39665       0
       7743.3785       2254.5858       803.13951       0
       7755.4392       5508.1806       819.41986       0
       7767.4999       1285.0313       672.63058       0
       7779.5606       3259.5523       677.13015       0
       7791.6214       907.93523       570.28718       0
       7803.6821       4554.4414       585.72079       0
       7815.7428       1404.5587       477.17793       0
       7827.8036       2950.3962       458.25100       0
       7839.8643       1233.7052       378.55630       0
       7851.9250       2743.1986       374.42944       0
       7863.9857       1333.3567       314.46926       0
       7876.0465       1889.0454       314.81993       0
       7888.1072       626.84275       264.59780       0
       7900.1679       1666.1515       267.34531       0
       7912.2286       1388.7654       238.06667       0
       7924.2894       1335.5876       239.84024       0
       7936.3501       714.27967       235.49866       0
       7948.4108       1017.8915       240.57317       0
       7960.4715       489.05923       214.04059       0
       7972.5323       1066.6590       223.34998       0
       7984.5930       565.22943       198.27329       0
       7996.6537       718.86152       203.98364       0
       8008.7145       641.70816       239.53569       0
       8020.7752       837.78639       193.86865       0
       8032.8359       958.42198       200.71022       0
       8044.8966       887.66411       185.66445       0
       8056.9574       644.82866       168.64325       0
       8069.0181       910.43607       179.44952       0
       8081.0788       680.42211       163.02157       0
       8093.1395       912.49857       173.63895       0
       8105.2003       486.75813       159.77752       0
       8117.2610       975.89338       167.69305       0
       8129.3217       661.87091       153.35756       0
       8141.3825       817.80624       160.55744       0
       8153.4432       438.38364       146.44235       1
       8165.5039       904.14586       154.35543       1
       8177.5646       495.95925       142.73589       1
       8189.6254       864.10382       167.70898       1
       8201.6861       735.26234       140.23157       1
       8213.7468       933.29621       145.08416       1
       8225.8075       597.03497       133.41918       1
       8237.8683       639.40706       134.68490       1
       8249.9290       723.15234       128.67119       1
       8261.9897       843.97546       144.45307       1
       8274.0504       546.67570       119.72679       1
       8286.1112       753.07732       124.60846       1
       8298.1719       674.88815       115.05725       1
       8310.2326       996.17492       123.52899       1
       8322.2934       480.02375       109.34322       1
       8334.3541       771.73456       116.33251       1
       8346.4148       775.36439       108.44594       1
       8358.4755       938.28676       114.02142       1
       8370.5363       659.12924       104.83490       1
       8382.5970       909.97827       112.10182       1
       8394.6577       818.45197       105.46004       1
       8406.7184       764.80048       107.12025       1
       8418.7792       823.07213       102.63388       1
       8430.8399       741.70330       113.80277       1
       8442.9006       482.30217       105.07544       1
       8454.9613       683.17582       107.42119       1
       8467.0221       541.43856       101.90721       1
       8479.0828       637.91778       106.83103       1
       8491.1435       530.61929       99.179724       1
       8503.2043       805.68950       105.25217       1
       8515.2650       646.07453       99.971439       1
       8527.3257       691.67750       100.42935       1
       8539.3864       592.59242       98.929415       1
       8551.4472       714.22104       101.68299       1
       8563.5079       675.52726       97.154762       1
       8575.5686       683.35160       100.35671       1
       8587.6293       490.13355       100.37076       1
       8599.6901       642.35466       99.293212       1
       8611.7508       729.51648       94.413828       1
       8623.8115       534.79773       95.826753       1
       8635.8722       569.80112       94.629419       1
       8647.9330       520.91836       104.95392       1
       8659.9937       354.64920       89.628025       1
       8672.0544       742.96893       96.452609       1
       8684.1152       547.44899       86.573253       1
       8696.1759       674.93410       92.924446       1
       8708.2366       564.13023       85.429940       1
       8720.2973       423.88718       86.444956       1
       8732.3581       582.34599       83.566597       1
       8744.4188       613.45695       85.737173       1
       8756.4795       510.87170       80.156804       1
       8768.5402       479.21704       83.331400       1
       8780.6010       528.87920       79.096339       1
       8792.6617       676.24762       83.024576       1
       8804.7224       453.49527       77.106983       1
       8816.7832       695.69588       81.329620       1
       8828.8439       472.38453       76.065084       1
       8840.9046       699.45458       79.058525       1
       8852.9653       529.88610       74.814047       1
       8865.0261       654.43976       76.262971       1
       8877.0868       620.28170       73.545526       1
       8889.1475       466.71774       74.247962       1
       8901.2082       677.59790       74.719849       1
       8913.2690       548.49659       73.008445       1
       8925.3297       484.67464       64.003859       1
       8937.3904       461.04444       65.864476       1
       8949.4511       454.78838       62.690040       1
       8961.5119       443.07258       65.598129       1
       8973.5726       378.86186       61.032578       1
       8985.6333       505.32663       64.473229       1
       8997.6941       384.01189       60.774949       1
       9009.7548       484.15752       64.084566       1
       9021.8155       477.82027       59.782406       1
       9033.8762       441.90483       62.873785       1
       9045.9370       424.06840       59.007547       1
       9057.9977       529.87571       62.938588       1
       9070.0584       471.62396       59.086053       1
       9082.1191       529.57892       62.894822       1
       9094.1799       533.64557       58.960001       1
       9106.2406       604.67181       61.749333       1
       9118.3013       433.38859       57.394712       1
       9130.3620       493.40931       58.993522       1
       9142.4228       475.49596       56.355249       1
       9154.4835       557.41515       58.248885       1
       9166.5442       457.01742       55.331575       1
       9178.6050       573.42252       59.153279       1
       9190.6657       448.54619       54.183870       1
       9202.7264       517.78049       56.482558       1
       9214.7871       451.21018       52.851242       1
       9226.8479       495.40301       54.763282       1
       9238.9086       446.69833       52.204972       1
       9250.9693       512.29735       54.467225       1
       9263.0300       470.77701       52.171926       1
       9275.0908       560.14791       55.582343       1
       9287.1515       532.06230       52.136499       1
       9299.2122       573.22208       54.399040       1
       9311.2730       457.83561       51.706779       1
       9323.3337       474.28743       52.645344       1
       9335.3944       424.68491       50.090392       1
       9347.4551       533.82029       53.833531       1
       9359.5159       462.31754       49.847939       1
       9371.5766       539.37382       53.232594       1
       9383.6373       519.15649       50.002818       1
       9395.6980       463.96684       51.706280       1
       9407.7588       455.88049       49.469384       1
       9419.8195       521.28038       46.380450       1
       9431.8802       434.20083       42.698925       1
       9443.9409       584.29267       45.920296       1
       9456.0017       488.02908       54.161514       1
       9468.0624       480.47429       45.110067       1
       9480.1231       416.15467       41.632320       1
       9492.1839       542.56349       44.774125       1
       9504.2446       402.18778       40.638678       1
       9516.3053       503.39850       43.858903       1
       9528.3660       462.25311       41.007763       1
       9540.4268       532.91445       44.010127       1
       9552.4875       453.44760       40.500115       1
       9564.5482       538.24907       43.768707       1
       9576.6089       428.41561       40.032746       1
       9588.6697       451.20808       42.200213       1
       9600.7304       464.85317       39.770533       1
       9612.7911       519.14441       42.879059       1
       9624.8518       442.69490       39.048964       1
       9636.9126       528.46617       42.503634       1
       9648.9733       495.51573       39.212835       1
       9661.0340       519.62572       42.272065       1
       9673.0948       424.23884       39.297509       1
       9685.1555       507.46053       41.924872       1
       9697.2162       418.19126       38.390625       1
       9709.2769       482.63164       40.687404       1
       9721.3377       413.50092       37.899550       1
       9733.3984       459.47048       40.119911       1
       9745.4591       431.76508       37.651238       1
       9757.5198       446.99570       39.701719       1
       9769.5806       447.86005       37.443617       1
       9781.6413       533.04106       39.614802       1
       9793.7020       435.69770       37.261412       1
       9805.7628       431.78491       39.072411       1
       9817.8235       476.99582       37.293678       1
       9829.8842       517.88879       39.220697       1
       9841.9449       464.87079       37.114004       1
       9854.0057       453.99635       38.878831       1
       9866.0664       382.66525       36.639567       1
       9878.1271       458.85565       38.741204       1
       9890.1878       444.12140       36.803116       1
       9902.2486       448.92968       42.833822       1
       9914.3093       429.63744       40.786081       1
       9926.3700       515.54573       43.864324       1
       9938.4307       427.97873       41.319338       1
       9950.4915       461.54171       42.074433       1
       9962.5522       387.49840       39.925949       1
       9974.6129       475.79497       42.711473       1
       9986.6737       425.04731       39.484968       1
       9998.7344       405.40004       41.397314       1
       10010.795       418.42503       38.810894       1
       10022.856       451.39305       41.188766       1
       10034.917       435.45654       38.891727       1
       10046.977       463.94478       41.337814       1
       10059.038       417.92843       38.703202       1
       10071.099       450.11948       40.894098       1
       10083.159       480.96400       39.464616       1
       10095.220       421.73729       40.834775       1
       10107.281       383.08001       38.456817       1
       10119.342       371.87636       39.793273       1
       10131.402       378.26328       38.734827       1
       10143.463       392.64925       41.073579       1
       10155.524       423.89164       38.677656       1
       10167.585       431.99192       39.762841       1
       10179.645       440.09844       37.973420       1
       10191.706       444.01066       40.050313       1
       10203.767       429.27107       37.706873       1
       10215.827       450.76842       39.965350       1
       10227.888       415.48051       38.005212       1
       10239.949       461.33480       39.530675       1
       10252.010       383.82813       36.673830       1
       10264.070       415.67908       38.401000       1
       10276.131       379.93785       36.235145       1
       10288.192       447.44291       38.654925       1
       10300.253       425.91652       36.128625       1
       10312.313       450.09376       38.179991       1
       10324.374       434.44417       35.936092       1
       10336.435       454.62317       37.706843       1
       10348.495       418.39295       35.762861       1
       10360.556       454.08835       38.179477       1
       10372.617       356.56592       35.411787       1
       10384.678       439.73423       37.174836       1
       10396.738       412.56262       38.895948       1
       10408.799       467.22295       40.733848       1
       10420.860       397.87765       39.681261       1
       10432.921       400.91431       39.579723       1
       10444.981       378.77589       39.556963       1
       10457.042       457.85723       41.481441       1
       10469.103       386.73463       38.433275       1
       10481.163       384.53939       40.547035       1
       10493.224       439.32761       39.800160       1
       10505.285       422.29295       41.194938       1
       10517.346       431.17855       38.689924       1
       10529.406       445.75786       40.708613       1
       10541.467       380.41279       38.346109       1
       10553.528       358.49981       39.462446       1
       10565.589       469.97888       38.666832       1
       10577.649       351.00181       39.258150       1
       10589.710       448.99280       38.585439       1
       10601.771       468.31911       40.738531       1
       10613.831       366.59874       37.940723       1
       10625.892       365.54961       39.616682       1
       10637.953       396.51674       37.640354       1
       10650.014       367.84379       39.149115       1
       10662.074       439.29723       38.389766       1
       10674.135       392.94480       38.950621       1
       10686.196       363.02364       36.906150       1
       10698.257       383.42971       39.110179       1
       10710.317       360.49951       36.848150       1
       10722.378       294.44719       38.572963       1
       10734.439       320.68254       36.466950       1
       10746.499       403.23573       38.980645       1
       10758.560       305.56680       36.299019       1
       10770.621       440.03829       40.542949       1
       10782.682       316.97773       36.214012       1
       10794.742       300.00643       38.279474       1
       10806.803       323.10573       36.389776       1
       10818.864       415.62105       38.943716       1
       10830.925       337.82898       36.317791       1
       10842.985       470.78588       39.323253       1
       10855.046       420.82954       37.619087       1
       10867.107       372.12351       37.073993       1
       10879.167       376.08147       36.143814       1
       10891.228       396.04493       34.942781       1
       10903.289       340.56579       32.249194       1
       10915.350       414.62830       35.225991       1
       10927.410       367.71106       32.654673       1
       10939.471       390.37892       34.008496       1
       10951.532       344.46923       33.095706       1
       10963.593       396.32420       34.246415       1
       10975.653       325.19404       32.171197       1
       10987.714       375.44030       34.490635       1
       10999.775       350.81515       32.650823       1
       11011.835       389.35961       34.443495       1
       11023.896       351.60185       32.565969       1
       11035.957       326.12428       37.381636       1
       11048.018       436.55673       33.475222       1
       11060.078       383.68187       34.263207       1
       11072.139       349.25942       33.106173       1
       11084.200       372.09451       34.330760       1
       11096.261       363.08669       32.632531       1
       11108.321       382.78679       33.867999       1
       11120.382       379.63587       33.006341       1
       11132.443       427.79892       34.795745       1
       11144.503       362.35834       32.657310       1
       11156.564       412.95296       37.810764       1
       11168.625       385.66437       33.011349       1
       11180.686       398.61747       34.982596       1
       11192.746       352.06984       32.278667       1
       11204.807       466.87195       38.333299       0
       11216.868       330.14468       32.129814       0
       11228.929       408.40055       34.480097       0
       11240.989       396.14756       40.667279       0
       11253.050       391.83972       34.452949       0
       11265.111       351.56471       32.776702       0
       11277.171       382.13222       34.438129       0
       11289.232       372.36455       32.914611       0
       11301.293       354.41319       34.687296       0
       11313.354       374.25269       32.063641       0
       11325.414       350.36856       33.696871       0
       11337.475       340.94158       32.804246       0
       11349.536       367.04691       35.705662       0
       11361.597       316.66308       34.640114       0
       11373.657       350.07909       38.320794       0
       11385.718       364.22547       34.054867       0
       11397.779       412.33446       40.223742       0
       11409.839       428.90608       41.078542       0
       11421.900       382.22294       47.550435       0
       11433.961       367.23734       50.902059       0
       11446.022       319.68778       59.868384       0
       11458.082       404.57737       64.299944       0
       11470.143       477.31163       77.381260       0
       11482.204       584.42536       82.242824       0
       11494.265       522.97461       97.893426       0
       11506.325       361.96968       98.811306       0
       11518.386       383.84256       116.84656       0
       11530.447       519.61758       121.52734       0
       11542.507       600.97763       148.16801       0
       11554.568       280.75235       153.62573       0
       11566.629       381.11250       200.37087       0
       11578.690       283.44935       261.77061       0
       11590.750       938.91239       298.07924       0
       11602.811       225.82157       346.64615       0
       11614.872       320.00989       450.49411       0
       11626.932       1503.0141       524.66093       0
       11638.993       1672.8542       679.16701       0
       11651.054       1962.3176       764.34808       0
       11663.115       650.91445       991.84209       0
       11675.175       955.52471       1137.8039       0
       11687.236       1971.3512       1577.8093       0
       11699.297       1193.9750       1901.2970       0
       11711.358       4966.7495       2662.1286       0
       11723.418       6681.5093       3223.9277       0
       11735.479       13267.968       4592.9231       0
       11747.540      -257.00835       4960.3336       0
       11759.600       13145.925       5959.7456       0
       11771.661       4527.2380       5505.2086       0
       11783.722       7547.2936       5648.6816       0
       11795.783       8029.9662       5251.0242       0
       11807.843      -176.55797       5368.3859       0
       11819.904      -6034.0566       5278.4555       0
