#WAVELENGTH FLUX ERROR MASK
       7490.1032      -56826.932       36053.122       0
       7502.1639      -39558.551       27881.844       0
       7514.2247      -43220.967       24964.072       0
       7526.2854      -39000.435       19686.368       0
       7538.3461      -41115.502       17488.091       0
       7550.4068      -31309.256       13192.386       0
       7562.4676      -20449.701       11654.799       0
       7574.5283      -14932.113       8338.2037       0
       7586.5890      -19002.716       7021.0450       0
       7598.6497      -7295.9076       5606.5416       0
       7610.7105      -10102.170       4991.6525       0
       7622.7712      -7325.7835       4737.2228       0
       7634.8319      -10848.691       3636.6402       0
       7646.8927      -5618.1634       3018.3661       0
       7658.9534      -6044.4180       2716.7650       0
       7671.0141      -3139.9364       2474.7050       0
       7683.0748      -3922.8528       1911.8465       0
       7695.1356      -2537.4143       1771.9615       0
       7707.1963      -3973.5287       1336.2269       0
       7719.2570      -1605.7932       1114.7096       0
       7731.3177      -2797.8360       1028.3412       0
       7743.3785      -1362.6055       897.96079       0
       7755.4392      -1159.6320       865.66723       0
       7767.4999      -1021.5353       757.03896       0
       7779.5606      -1402.5576       729.54705       0
       7791.6214      -673.51559       638.79100       0
       7803.6821      -690.93467       613.10250       0
       7815.7428      -822.56189       519.59714       0
       7827.8036      -999.01214       487.28760       0
       7839.8643      -319.12089       440.85932       0
       7851.9250      -663.44240       397.55859       0
       7863.9857      -333.98488       345.31024       0
       7876.0465      -700.18198       331.43643       0
       7888.1072      -239.63909       297.66903       0
       7900.1679      -441.47404       287.23918       0
       7912.2286      -217.28679       259.19634       0
       7924.2894      -290.20181       256.50372       0
       7936.3501      -175.48492       228.70880       0
       7948.4108      -417.88867       230.46671       0
       7960.4715      -135.16893       209.38799       0
       7972.5323      -444.52346       212.98594       0
       7984.5930      -49.270578       203.25409       0
       7996.6537      -123.71485       199.08523       0
       8008.7145      -150.60907       180.37249       0
       8020.7752      -173.64268       193.33232       0
       8032.8359      -154.38729       169.83105       0
       8044.8966      -244.55069       176.96672       0
       8056.9574       64.564307       170.03420       0
       8069.0181      -210.93309       171.96953       0
       8081.0788      -128.54400       179.40639       0
       8093.1395      -255.89334       202.93438       0
       8105.2003      -82.795941       151.87316       0
       8117.2610      -291.68830       155.99226       0
       8129.3217      -108.77719       154.39424       0
       8141.3825      -159.49155       154.27764       0
       8153.4432      -169.53673       140.53128       1
       8165.5039      -96.317262       148.27198       1
       8177.5646       52.754336       138.75022       1
       8189.6254      -24.278240       147.22672       1
       8201.6861       151.22259       139.34865       1
       8213.7468      -44.432351       140.96981       1
       8225.8075      -35.389384       138.28565       1
       8237.8683      -122.36522       133.07827       1
       8249.9290       16.726216       128.44330       1
       8261.9897      -137.29654       128.17872       1
       8274.0504       25.053814       133.94574       1
       8286.1112      -158.98843       133.62020       1
       8298.1719       54.828406       114.35290       1
       8310.2326      -96.381741       120.77584       1
       8322.2934       10.521978       109.45092       1
       8334.3541      -18.623550       114.15773       1
       8346.4148       73.893828       107.29673       1
       8358.4755       120.67115       111.84713       1
       8370.5363       29.323761       104.39816       1
       8382.5970      -14.586362       108.31329       1
       8394.6577       82.288547       101.10152       1
       8406.7184      -3.6975904       104.35555       1
       8418.7792       77.581623       98.329850       1
       8430.8399      -194.88600       97.919941       1
       8442.9006      -11.190142       98.491181       1
       8454.9613      -54.618423       96.768530       1
       8467.0221       32.873929       89.997841       1
       8479.0828      -73.630434       98.727275       1
       8491.1435       31.383523       88.674585       1
       8503.2043      -54.941262       92.019633       1
       8515.2650      -4.9441297       84.831361       1
       8527.3257      -111.30624       90.273904       1
       8539.3864       7.8617526       84.040772       1
       8551.4472       4.9428596       88.819561       1
       8563.5079      -26.204211       81.942073       1
       8575.5686      -61.305007       86.318889       1
       8587.6293       45.854043       94.410000       1
       8599.6901      -132.51934       85.271510       1
       8611.7508       56.049848       86.545344       1
       8623.8115      -61.938976       86.273235       1
       8635.8722       19.227366       81.613988       1
       8647.9330       18.841910       84.800443       1
       8659.9937       30.179266       79.266223       1
       8672.0544       6.5449893       83.290614       1
       8684.1152      -31.553470       77.032495       1
       8696.1759      -29.925051       79.077276       1
       8708.2366      -30.466381       79.102282       1
       8720.2973      -66.810102       77.208684       1
       8732.3581       10.558250       72.603846       1
       8744.4188      -44.278182       74.557151       1
       8756.4795       48.138029       70.659447       1
       8768.5402       25.556636       74.017920       1
       8780.6010      -26.525670       77.763075       1
       8792.6617       8.8809738       72.238043       1
       8804.7224      -32.157972       67.009906       1
       8816.7832      -35.401378       69.730799       1
       8828.8439       50.549439       68.564297       1
       8840.9046      -31.363864       68.674639       1
       8852.9653       128.49711       75.508562       1
       8865.0261      -8.3005387       66.873730       1
       8877.0868       5.8909819       62.728549       1
       8889.1475      -8.2693954       67.403872       1
       8901.2082       65.117209       62.351709       1
       8913.2690       18.354074       65.515662       1
       8925.3297       61.655133       63.235575       1
       8937.3904       26.649181       66.896349       1
       8949.4511       81.956996       61.785638       1
       8961.5119       32.207712       67.029793       1
       8973.5726       69.370200       60.947051       1
       8985.6333       60.701742       63.422440       1
       8997.6941       122.33369       61.051886       1
       9009.7548       57.404297       62.517210       1
       9021.8155       80.083765       58.611528       1
       9033.8762       44.227848       61.819860       1
       9045.9370       119.12828       59.355834       1
       9057.9977      -7.6917577       60.053187       1
       9070.0584       128.24319       59.276382       1
       9082.1191       19.003223       60.662051       1
       9094.1799       93.673378       66.121333       1
       9106.2406       58.739263       59.532105       1
       9118.3013       90.901826       62.854546       1
       9130.3620       79.040723       58.631017       1
       9142.4228       97.900737       55.532332       1
       9154.4835       74.504765       57.033806       1
       9166.5442       119.59914       52.513524       1
       9178.6050       80.579212       54.134615       1
       9190.6657       100.73605       57.550249       1
       9202.7264       82.729949       55.223837       1
       9214.7871       124.78353       52.000924       1
       9226.8479       160.54458       59.198701       1
       9238.9086       117.55449       49.599992       1
       9250.9693       69.369221       52.304667       1
       9263.0300       108.73529       48.515503       1
       9275.0908       155.60882       52.744746       1
       9287.1515       96.725794       47.388259       1
       9299.2122       117.35749       50.916305       1
       9311.2730       111.51398       47.664624       1
       9323.3337       94.706759       50.558219       1
       9335.3944       126.26609       47.409934       1
       9347.4551       103.40653       49.665611       1
       9359.5159       140.87112       46.989282       1
       9371.5766       78.988721       50.578332       1
       9383.6373       127.43905       46.341869       1
       9395.6980       78.159782       48.712337       1
       9407.7588       148.37456       46.316121       1
       9419.8195       85.026727       49.640114       1
       9431.8802       135.87329       46.334977       1
       9443.9409       34.794600       47.305189       1
       9456.0017       125.41553       45.589128       1
       9468.0624       95.725551       50.223082       1
       9480.1231       59.961508       46.364345       1
       9492.1839       64.292201       47.011796       1
       9504.2446       135.50190       53.319115       1
       9516.3053       54.257650       46.485994       1
       9528.3660       103.87306       43.862821       1
       9540.4268       82.396955       46.084075       1
       9552.4875       128.23902       43.661212       1
       9564.5482       82.761836       45.536394       1
       9576.6089       119.58208       44.108368       1
       9588.6697       101.87224       45.428416       1
       9600.7304       105.79409       42.565997       1
       9612.7911       83.614438       44.417689       1
       9624.8518       78.617207       42.055045       1
       9636.9126       87.383178       44.342867       1
       9648.9733       96.557732       41.899379       1
       9661.0340       107.74664       43.973750       1
       9673.0948       162.61463       42.644891       1
       9685.1555       109.83645       43.951793       1
       9697.2162       146.25331       41.792583       1
       9709.2769       115.94975       43.251200       1
       9721.3377       127.46744       41.116642       1
       9733.3984       72.071190       42.720491       1
       9745.4591       99.181944       40.380619       1
       9757.5198       111.67774       42.585592       1
       9769.5806       123.60347       40.562305       1
       9781.6413       85.974182       42.361062       1
       9793.7020       115.12672       40.396683       1
       9805.7628       112.20280       42.032804       1
       9817.8235       98.861111       39.615171       1
       9829.8842       124.47997       41.834990       1
       9841.9449       111.48040       39.739347       1
       9854.0057       92.080574       41.386164       1
       9866.0664       130.96304       39.725794       1
       9878.1271       120.36026       40.765961       1
       9890.1878       138.13242       40.676317       1
       9902.2486       150.46370       40.976448       1
       9914.3093       156.20570       43.725806       1
       9926.3700       112.38819       40.677560       1
       9938.4307       133.41934       38.124700       1
       9950.4915       107.15101       39.895721       1
       9962.5522       137.00977       37.661541       1
       9974.6129       152.23844       39.927675       1
       9986.6737       142.48407       37.416035       1
       9998.7344       120.57311       38.611320       1
       10010.795       143.88882       36.906342       1
       10022.856       131.40999       38.673903       1
       10034.917       162.54127       37.012995       1
       10046.977       131.14325       38.425204       1
       10059.038       161.45856       36.895558       1
       10071.099       114.68808       38.562783       1
       10083.159       156.58181       36.683679       1
       10095.220       109.84864       37.866104       1
       10107.281       150.66497       36.630426       1
       10119.342       131.45038       38.212655       1
       10131.402       124.41943       36.124691       1
       10143.463       127.35953       37.715118       1
       10155.524       151.64618       37.469336       1
       10167.585       123.05761       38.791632       1
       10179.645       144.46602       37.255908       1
       10191.706       178.48927       39.119584       1
       10203.767       152.42518       37.353141       1
       10215.827       126.41176       40.199179       1
       10227.888       141.49853       36.570088       1
       10239.949       127.78806       37.771784       1
       10252.010       148.26817       36.161366       1
       10264.070       177.81324       38.195315       1
       10276.131       172.70190       36.182788       1
       10288.192       150.58351       37.441746       1
       10300.253       144.73624       35.305143       1
       10312.313       123.56482       36.635580       1
       10324.374       165.56103       35.015966       1
       10336.435       155.46943       36.614875       1
       10348.495       165.97680       35.186635       1
       10360.556       135.78317       36.898237       1
       10372.617       166.51387       35.331803       1
       10384.678       143.49585       36.685346       1
       10396.738       154.74829       34.052741       1
       10408.799       132.34905       35.458324       1
       10420.860       137.11872       38.759790       1
       10432.921       131.33748       35.917188       1
       10444.981       105.72491       35.485423       1
       10457.042       129.97559       35.655499       1
       10469.103       133.67052       33.855888       1
       10481.163       114.47280       35.219882       1
       10493.224       154.04097       33.984627       1
       10505.285       125.47166       35.460924       1
       10517.346       130.84692       33.917315       1
       10529.406       131.76281       34.816869       1
       10541.467       129.36533       33.500967       1
       10553.528       150.74254       35.545001       1
       10565.589       132.66353       33.789018       1
       10577.649       131.51881       35.351473       1
       10589.710       147.02035       33.838866       1
       10601.771       114.18468       36.564560       1
       10613.831       137.32315       33.442476       1
       10625.892       124.91996       34.789958       1
       10637.953       128.34365       33.325503       1
       10650.014       135.26788       34.412295       1
       10662.074       142.58619       32.432074       1
       10674.135       133.39535       34.266987       1
       10686.196       115.10592       32.023429       1
       10698.257       119.26063       33.836124       1
       10710.317       141.08958       32.487111       1
       10722.378       102.09871       33.904403       1
       10734.439       123.84257       33.978356       1
       10746.499       100.10511       33.710463       1
       10758.560       121.86790       32.102985       1
       10770.621       110.37299       33.581080       1
       10782.682       143.11960       31.953067       1
       10794.742       128.22054       34.074082       1
       10806.803       135.25711       31.821746       1
       10818.864       109.99682       33.155042       1
       10830.925       139.17575       32.077049       1
       10842.985       136.97363       33.509284       1
       10855.046       143.49825       31.411224       1
       10867.107       121.28579       33.532186       1
       10879.167       155.38938       31.139582       1
       10891.228       138.05358       33.979872       1
       10903.289       160.09487       32.233486       1
       10915.350       169.73770       33.921937       1
       10927.410       120.12903       32.419843       1
       10939.471       162.03048       34.004020       1
       10951.532       147.35980       32.120246       1
       10963.593       159.90956       33.954817       1
       10975.653       133.61783       31.884637       1
       10987.714       141.02551       33.783762       1
       10999.775       152.59721       31.979338       1
       11011.835       116.80951       34.453674       1
       11023.896       177.83387       32.478646       1
       11035.957       157.43152       37.791397       1
       11048.018       158.03599       33.135227       1
       11060.078       172.00642       33.557493       1
       11072.139       157.92004       32.176166       1
       11084.200       132.47235       33.109365       1
       11096.261       157.76408       31.946538       1
       11108.321       153.96273       33.048626       1
       11120.382       147.29288       31.578119       1
       11132.443       165.33818       32.305740       1
       11144.503       168.24125       30.191066       1
       11156.564       175.26463       32.432443       1
       11168.625       172.30916       31.532234       1
       11180.686       147.04926       32.026081       1
       11192.746       151.13626       30.390419       1
       11204.807       167.06428       32.500866       0
       11216.868       164.32773       30.674604       0
       11228.929       149.70800       32.089432       0
       11240.989       152.90623       30.375627       0
       11253.050       152.13711       32.064201       0
       11265.111       171.93674       30.468606       0
       11277.171       154.05803       32.243198       0
       11289.232       142.31784       30.580515       0
       11301.293       163.38673       35.962025       0
       11313.354       137.99050       30.588071       0
       11325.414       155.72595       33.960901       0
       11337.475       138.53069       30.839116       0
       11349.536       178.70658       38.803602       0
       11361.597       123.75236       32.552509       0
       11373.657       116.07712       37.431961       0
       11385.718       125.83639       43.135433       0
       11397.779       98.322303       42.533356       0
       11409.839       150.65013       46.702202       0
       11421.900       155.36563       52.306008       0
       11433.961       118.99557       55.007443       0
       11446.022       93.991311       65.948927       0
       11458.082       43.000021       80.728957       0
       11470.143       120.38668       85.242649       0
       11482.204      -70.057672       103.50009       0
       11494.265       97.821215       106.57443       0
       11506.325       114.97825       111.97763       0
       11518.386       190.69017       130.98655       0
       11530.447       252.08360       137.16228       0
       11542.507       105.29017       161.71786       0
       11554.568       217.37527       179.27547       0
       11566.629       171.85132       223.89504       0
       11578.690       189.82234       253.78292       0
       11590.750       15.617856       344.70169       0
       11602.811      -50.744765       382.89970       0
       11614.872       104.39143       505.66347       0
       11626.932      -5.3928944       605.41660       0
       11638.993       33.747184       753.77781       0
       11651.054      -214.03891       965.96715       0
       11663.115       730.08898       1155.8330       0
       11675.175      -419.27875       1284.8482       0
       11687.236       274.76212       1744.6080       0
       11699.297       242.24219       2539.1513       0
       11711.358      -1198.0339       3319.7681       0
       11723.418      -1872.1845       3571.8528       0
       11735.479       1542.3692       4999.3039       0
       11747.540      -711.15395       5631.9888       0
       11759.600      -5530.6213       6316.9196       0
       11771.661      -1649.9446       6116.3102       0
       11783.722      -3791.9042       6317.8509       0
       11795.783      -7851.2398       5740.8207       0
       11807.843       564.94763       6111.7072       0
       11819.904      -2486.4326       5903.6888       0
