#WAVELENGTH FLUX ERROR MASK
       10219.964      -974.43490       3264.0609       0
       10243.086       2846.6044       2807.2902       0
       10266.209       2414.7556       2435.6968       0
       10289.331       1656.1862       2051.2546       0
       10312.453       1266.0234       1836.4842       0
       10335.575       2301.3722       1609.8653       0
       10358.697       318.61191       1469.8210       0
       10381.820       1503.0921       1328.0567       0
       10404.942      -2283.0109       1224.2577       0
       10428.064      -167.57024       1065.0356       0
       10451.186       1422.3574       959.70741       0
       10474.308       587.06567       789.39222       0
       10497.431       668.86816       679.24340       0
       10520.553       677.37266       563.95199       0
       10543.675       382.80426       486.26390       0
       10566.797       282.64990       411.97618       0
       10589.919       556.21573       373.31379       0
       10613.042       703.57733       331.62376       0
       10636.164       563.96231       304.56963       0
       10659.286       394.48553       264.23331       0
       10682.408       446.65664       235.36060       0
       10705.530       28.072091       146.28945       0
       10728.653      -284.55559       174.19101       0
       10751.775       94.328958       102.48397       0
       10774.897       160.69605       120.30467       0
       10798.019       283.35500       98.611965       0
       10821.142       197.06403       88.581185       0
       10844.264       235.67180       73.490492       0
       10867.386       366.04509       71.652910       0
       10890.508       298.28837       61.841396       0
       10913.630       292.04424       58.002642       0
       10936.753       319.61347       54.005444       0
       10959.875       240.45669       50.302964       0
       10982.997       321.82121       47.468586       0
       11006.119       192.43335       45.268749       1
       11029.241       332.11803       41.479706       1
       11052.364       257.91862       40.293180       1
       11075.486       304.18784       36.825472       1
       11098.608       297.36205       36.931167       1
       11121.730       286.07250       33.732038       1
       11144.852       326.62583       33.377088       1
       11167.975       291.30087       32.198133       1
       11191.097       265.77186       31.675774       1
       11214.219       294.91410       30.819487       1
       11237.341       281.08039       32.429395       1
       11260.463       290.53717       30.518390       1
       11283.586       294.30130       30.903804       1
       11306.708       299.21142       30.076633       1
       11329.830       280.71350       31.159729       1
       11352.952       277.63813       29.350280       1
       11376.074       289.12515       29.764842       1
       11399.197       323.18956       29.383060       1
       11422.319       312.18975       30.350504       1
       11445.441       315.76121       28.809348       1
       11468.563       328.90521       30.390678       1
       11491.686       302.24137       28.328962       1
       11514.808       285.44176       28.635219       1
       11537.930       337.63984       31.506318       1
       11561.052       325.16616       28.806448       1
       11584.174       326.65373       28.146291       1
       11607.297       292.77104       28.062966       1
       11630.419       292.29353       27.486943       1
       11653.541       300.51308       27.679489       1
       11676.663       281.83629       26.954928       1
       11699.785       306.69838       27.106910       1
       11722.908       284.53859       26.269332       1
       11746.030       313.23828       26.756755       1
       11769.152       266.59453       25.617295       1
       11792.274       255.46949       25.408794       1
       11815.396       313.86515       25.596662       1
       11838.519       296.11273       25.326621       1
       11861.641       272.58759       24.822708       1
       11884.763       281.22793       24.674220       1
       11907.885       290.30858       24.655220       1
       11931.007       300.33651       24.850557       1
       11954.130       312.44890       24.377660       1
       11977.252       302.40714       24.536416       1
       12000.374       317.69041       24.154530       1
       12023.496       297.55218       24.058575       1
       12046.618       281.20756       23.505898       1
       12069.741       274.31422       23.414524       1
       12092.863       308.15724       23.621032       1
       12115.985       257.08468       23.164073       1
       12139.107       307.92305       23.327521       1
       12162.230       289.54623       23.368310       1
       12185.352       293.79703       22.977546       1
       12208.474       288.14243       23.149766       1
       12231.596       275.16079       22.479583       1
       12254.718       283.52376       22.730567       1
       12277.841       290.93233       22.486049       1
       12300.963       281.04276       22.559139       1
       12324.085       285.74940       22.161390       1
       12347.207       312.86946       22.922950       1
       12370.329       287.43756       21.907418       1
       12393.452       285.11787       22.171989       1
       12416.574       284.39611       21.615746       1
       12439.696       271.05549       21.730611       1
       12462.818       288.65116       21.634918       1
       12485.940       270.07460       21.715287       1
       12509.063       297.31713       21.638062       1
       12532.185       255.46815       22.291979       1
       12555.307       284.16036       21.267879       1
       12578.429       258.56874       21.404777       1
       12601.551       284.00644       20.921354       1
       12624.674       268.00929       21.377193       1
       12647.796       292.17454       21.129092       1
       12670.918       278.23178       21.965084       1
       12694.040       278.02550       20.926045       1
       12717.162       282.26433       21.815638       1
       12740.285       265.48673       20.425004       1
       12763.407       272.28976       20.691829       1
       12786.529       291.44353       20.442155       1
       12809.651       271.93295       20.687344       1
       12832.774       244.17314       19.874946       1
       12855.896       266.93431       20.511500       1
       12879.018       269.14525       19.996483       1
       12902.140       244.82351       19.892514       1
       12925.262       267.41861       19.840801       1
       12948.385       237.67913       19.772795       1
       12971.507       263.62034       19.618975       1
       12994.629       271.00818       20.557150       1
       13017.751       250.96070       19.184611       1
       13040.873       265.89434       20.367117       1
       13063.996       248.94775       19.047784       1
       13087.118       257.83522       19.405602       1
       13110.240       273.52109       19.334006       1
       13133.362       274.62291       19.617853       1
       13156.484       263.37304       18.992983       1
       13179.607       241.58694       18.969055       1
       13202.729       261.22290       18.807523       1
       13225.851       264.78329       19.096058       1
       13248.973       263.10194       18.559685       1
       13272.095       249.14764       18.612113       1
       13295.218       261.63260       18.549430       1
       13318.340       254.58702       18.814792       1
       13341.462       251.53064       18.358474       1
       13364.584       256.01914       18.665186       1
       13387.707       248.93749       18.302341       1
       13410.829       260.80398       18.722568       1
       13433.951       253.12830       18.287747       1
       13457.073       256.84300       18.445371       1
       13480.195       278.65337       17.818163       1
       13503.318       269.35231       18.473606       1
       13526.440       265.78452       18.141892       1
       13549.562       284.09661       18.984901       1
       13572.684       267.76563       18.052476       1
       13595.806       281.95429       18.566260       1
       13618.929       294.17652       18.247419       1
       13642.051       273.01171       18.864699       1
       13665.173       281.45162       18.128946       1
       13688.295       273.57018       18.439357       1
       13711.417       302.85972       18.338017       1
       13734.540       323.69737       19.646817       1
       13757.662       296.58295       18.281334       1
       13780.784       280.04668       18.289360       1
       13803.906       272.82956       18.175763       1
       13827.028       284.59600       18.643195       1
       13850.151       277.86830       18.170032       1
       13873.273       272.17882       17.920227       1
       13896.395       255.06715       17.800283       1
       13919.517       265.48925       18.268377       1
       13942.639       260.02335       17.626249       1
       13965.762       287.88639       18.352405       1
       13988.884       277.81396       17.877157       1
       14012.006       296.42379       18.434645       1
       14035.128       263.13600       17.650772       1
       14058.251       275.69933       18.032384       1
       14081.373       271.61872       17.586161       1
       14104.495       267.15713       18.238308       1
       14127.617       272.79770       17.564125       1
       14150.739       263.98887       17.628012       1
       14173.862       263.47806       17.380350       1
       14196.984       263.68724       17.657071       1
       14220.106       255.35373       17.337834       1
       14243.228       265.36290       17.525097       1
       14266.350       267.44902       17.194891       1
       14289.473       270.15964       17.454776       1
       14312.595       289.50107       17.227612       1
       14335.717       273.90582       17.245447       1
       14358.839       254.32997       16.845301       1
       14381.961       252.73550       17.088451       1
       14405.084       264.35201       16.864289       1
       14428.206       242.41699       16.968200       1
       14451.328       258.58431       16.974735       1
       14474.450       224.98043       16.666855       1
       14497.572       254.50903       16.896117       1
       14520.695       267.52386       17.257980       1
       14543.817       267.90262       17.113830       1
       14566.939       260.94688       17.258907       1
       14590.061       259.24902       16.916261       1
       14613.183       269.13782       17.274205       1
       14636.306       263.94747       17.065535       1
       14659.428       258.45378       17.252575       1
       14682.550       259.03455       17.019929       1
       14705.672       241.21982       16.999174       1
       14728.795       261.29498       17.093274       1
       14751.917       247.19999       17.252895       1
       14775.039       253.55163       17.073276       1
       14798.161       229.56570       17.179117       1
       14821.283       234.97067       17.019008       1
       14844.406       236.20389       17.320484       1
       14867.528       252.91047       17.169848       1
       14890.650       226.15102       17.107563       1
       14913.772       254.47484       17.032288       1
       14936.894       243.70206       17.510422       1
       14960.017       227.05483       16.627252       1
       14983.139       214.76290       16.624141       1
       15006.261       256.65335       16.617957       1
       15029.383       249.76746       16.775992       1
       15052.505       257.56814       16.601696       1
       15075.628       241.72855       16.725596       1
       15098.750       241.50041       16.416507       1
       15121.872       232.70635       16.666532       1
       15144.994       233.44068       16.314467       1
       15168.116       223.66680       16.323605       1
       15191.239       224.50658       16.090434       1
       15214.361       212.79322       16.207544       1
       15237.483       236.82437       16.301766       1
       15260.605       212.55232       16.125244       1
       15283.727       226.68391       16.076912       1
       15306.850       233.59787       16.288202       1
       15329.972       215.88669       15.980446       1
       15353.094       240.08901       16.601987       1
       15376.216       232.21340       16.310983       1
       15399.339       247.16652       16.696396       1
       15422.461       224.08092       16.182757       1
       15445.583       233.35032       16.965754       1
       15468.705       235.44528       16.365222       1
       15491.827       231.89566       16.599736       1
       15514.950       233.28020       16.297309       1
       15538.072       217.31005       16.514057       1
       15561.194       238.37433       16.316696       1
       15584.316       237.06700       16.708135       1
       15607.438       246.87774       16.481328       1
       15630.561       233.70086       16.093948       1
       15653.683       215.02694       16.104645       1
       15676.805       236.33850       16.450733       1
       15699.927       226.15677       15.779421       1
       15723.049       221.30262       16.227954       1
       15746.172       248.15509       16.235370       1
       15769.294       225.79543       16.353500       1
       15792.416       225.95349       16.074699       1
       15815.538       220.80570       16.367118       1
       15838.660       219.20843       15.823896       1
       15861.783       228.36584       16.815589       1
       15884.905       219.61519       15.886592       1
       15908.027       208.08108       16.321345       1
       15931.149       203.04452       15.839064       1
       15954.271       237.78060       16.340753       1
       15977.394       226.95931       16.228483       1
       16000.516       214.31292       16.085464       1
       16023.638       206.81316       15.928340       1
       16046.760       203.15024       16.278335       1
       16069.883       216.97886       16.192387       1
       16093.005       206.52928       16.320358       1
       16116.127       193.95741       15.847884       1
       16139.249       184.52104       16.079256       1
       16162.371       211.66178       16.128361       1
       16185.494       190.42589       16.216947       1
       16208.616       211.11374       16.220481       1
       16231.738       223.88010       16.790613       1
       16254.860       225.56795       16.473871       1
       16277.982       216.21995       16.413361       1
       16301.105       216.37219       16.581376       1
       16324.227       228.61421       16.869628       1
       16347.349       231.45730       16.755932       1
       16370.471       220.75675       16.916415       1
       16393.593       214.50382       16.498894       1
       16416.716       207.48986       16.662718       1
       16439.838       219.99113       16.693986       1
       16462.960       216.66474       16.937205       1
       16486.082       198.29936       16.745367       1
       16509.204       228.59870       17.629826       1
       16532.327       217.03376       17.471521       1
       16555.449       255.99875       19.303118       1
       16578.571       215.49576       18.738740       1
       16601.693       216.59585       19.928600       1
       16624.816       211.01417       20.863919       1
       16647.938       174.06750       22.401423       1
       16671.060       181.74980       23.991558       1
       16694.182       227.85379       27.256117       1
       16717.304       217.62569       29.697828       1
       16740.427       205.70213       35.023413       1
       16763.549       205.37775       37.302246       0
       16786.671       209.14277       43.134739       0
       16809.793       172.84261       47.738236       0
       16832.915       143.86233       54.572781       0
       16856.038       114.22341       60.133851       0
       16879.160       32.770308       69.795184       0
       16902.282       189.00559       75.410589       0
       16925.404       30.576453       87.770602       0
       16948.526       135.57066       94.167745       0
       16971.649       281.43793       107.59680       0
       16994.771       264.80509       117.49357       0
       17017.893      -136.21775       133.85398       0
       17041.015       56.157740       143.09153       0
       17064.137       16.610701       160.32604       0
       17087.260       98.571831       177.17388       0
       17110.382       273.52031       205.88884       0
       17133.504       139.25199       223.22716       0
       17156.626       251.49329       277.97249       0
       17179.748       6.1825379       300.34524       0
       17202.871       520.53060       358.23907       0
       17225.993       165.54108       390.88269       0
       17249.115       370.31085       454.65751       0
       17272.237       61.441160       495.22972       0
       17295.360       358.59272       562.18407       0
       17318.482      -119.14085       601.06871       0
       17341.604      -1076.6032       689.59141       0
       17364.726      -636.68474       738.77300       0
       17387.848       66.398011       843.59874       0
       17410.971       539.04071       910.86197       0
