#WAVELENGTH FLUX ERROR MASK
       7507.7423       6174.5657       592.95825       0
       7520.0310      -21381.378       566.95041       0
       7532.3197      -13270.259       361.49104       0
       7544.6083       4554.3311       377.51100       0
       7556.8970      -9753.3731       290.84434       0
       7569.1856       4399.2705       299.16575       0
       7581.4743      -90.298564       228.27525       0
       7593.7630      -5552.6847       236.13483       0
       7606.0516      -1022.1509       191.27105       0
       7618.3403      -3092.7456       204.38976       0
       7630.6289      -1156.5483       165.21542       0
       7642.9176      -2660.8346       172.57174       0
       7655.2062       2019.4951       141.52999       0
       7667.4949      -2011.1749       146.43552       0
       7679.7836      -2333.5250       116.86043       0
       7692.0722      -1072.4505       122.52650       0
       7704.3609      -921.23044       107.29540       0
       7716.6495       727.67023       105.93519       0
       7728.9382      -718.55134       86.289463       0
       7741.2268       1642.1549       93.891162       0
       7753.5155       525.12129       77.633563       0
       7765.8042       628.64855       86.541597       0
       7778.0928       650.91628       71.492927       0
       7790.3815       676.07261       78.360884       0
       7802.6701      -249.15927       64.767507       0
       7814.9588       9.6249239       70.656873       0
       7827.2475       793.59176       57.516084       0
       7839.5361       575.83740       64.188763       0
       7851.8248      -51.412378       52.266617       0
       7864.1134       15.087863       57.393836       0
       7876.4021       132.48529       48.077230       0
       7888.6907       217.16162       54.829045       0
       7900.9794       99.564621       45.266894       0
       7913.2681       472.97774       51.458738       0
       7925.5567       251.85197       42.577142       0
       7937.8454       408.03908       47.960862       0
       7950.1340       370.31892       40.730714       0
       7962.4227       157.41957       45.721385       0
       7974.7113       68.744470       39.418626       0
       7987.0000       200.61724       44.264612       0
       7999.2887       207.30411       37.624239       0
       8011.5773       194.51298       42.598426       0
       8023.8660       45.804972       36.353072       0
       8036.1546       201.43412       41.113613       0
       8048.4433       232.12862       35.633000       0
       8060.7320       393.49921       50.436207       0
       8073.0206       129.44096       34.920766       0
       8085.3093       117.36637       39.236270       0
       8097.5979       233.88504       38.495542       0
       8109.8866       335.26897       38.877259       0
       8122.1752       164.41903       33.647129       0
       8134.4639       334.43581       38.190338       0
       8146.7526       214.50272       32.112400       0
       8159.0412       74.348278       37.166551       1
       8171.3299       254.04707       31.598800       1
       8183.6185       5.8107396       36.302988       1
       8195.9072       135.02582       31.102301       1
       8208.1959       129.00094       35.141384       1
       8220.4845       212.68828       34.154182       1
       8232.7732       212.21979       34.526744       1
       8245.0618       168.81553       29.642095       1
       8257.3505       95.168332       34.003990       1
       8269.6391       170.73849       28.801255       1
       8281.9278       289.59524       32.575385       1
       8294.2165       223.03387       28.304043       1
       8306.5051       180.62815       32.229015       1
       8318.7938       172.06973       30.845309       1
       8331.0824       263.22111       31.487589       1
       8343.3711       137.66925       27.617098       1
       8355.6597       298.49925       30.797240       1
       8367.9484       252.88397       26.931172       1
       8380.2371       259.80162       30.778944       1
       8392.5257       286.01026       26.354421       1
       8404.8144       234.02009       30.388983       1
       8417.1030       209.23898       26.410878       1
       8429.3917       207.95961       29.787463       1
       8441.6804       313.54740       25.953138       1
       8453.9690       295.96970       29.585663       1
       8466.2577       238.52263       25.252749       1
       8478.5463       323.76207       28.438776       1
       8490.8350       294.58153       25.232394       1
       8503.1236       286.93232       28.837864       1
       8515.4123       399.34578       24.746371       1
       8527.7010       279.86677       28.068244       1
       8539.9896       163.60563       24.652921       1
       8552.2783       214.67227       27.921819       1
       8564.5669       243.12030       24.584970       1
       8576.8556       355.70699       27.988228       1
       8589.1442       273.02850       24.347319       1
       8601.4329       203.29374       27.873175       1
       8613.7216       287.51198       24.157630       1
       8626.0102       141.57209       27.984919       1
       8638.2989       183.84068       24.287945       1
       8650.5875       416.51732       28.031885       1
       8662.8762       150.20574       23.777669       1
       8675.1649       275.92721       27.577686       1
       8687.4535       303.55994       24.361502       1
       8699.7422       337.04054       26.876469       1
       8712.0308       353.70325       25.852581       1
       8724.3195       283.71005       26.288330       1
       8736.6081       265.10712       22.776649       1
       8748.8968       169.87055       25.747229       1
       8761.1855       290.96084       22.280325       1
       8773.4741       258.89136       25.550302       1
       8785.7628       231.53097       22.326845       1
       8798.0514       291.80425       25.629932       1
       8810.3401       215.58973       22.190542       1
       8822.6288       333.29614       25.387413       1
       8834.9174       200.18634       22.131454       1
       8847.2061       273.41828       25.673444       1
       8859.4947       209.63876       24.053024       1
       8871.7834       337.33770       30.046587       1
       8884.0720       247.17823       21.650774       1
       8896.3607       298.87121       24.578880       1
       8908.6494       375.37183       31.526725       1
       8920.9380       240.07792       30.058112       1
       8933.2267       228.59781       21.411067       1
       8945.5153       284.17682       23.873313       1
       8957.8040       304.45129       21.073097       1
       8970.0926       311.55531       24.019842       1
       8982.3813       282.87679       20.886792       1
       8994.6700       266.27713       23.840340       1
       9006.9586       205.18739       20.596956       1
       9019.2473       308.79870       23.579937       1
       9031.5359       247.06399       20.639746       1
       9043.8246       252.32435       23.774329       1
       9056.1133       205.25541       20.631935       1
       9068.4019       285.72557       23.688485       1
       9080.6906       277.36583       20.659628       1
       9092.9792       238.76601       23.786639       1
       9105.2679       226.36183       20.382121       1
       9117.5565       243.90034       23.173306       1
       9129.8452       309.51973       20.243452       1
       9142.1339       338.97293       23.197646       1
       9154.4225       194.64855       20.041664       1
       9166.7112       322.18363       22.933588       1
       9178.9998       290.91134       19.696397       1
       9191.2885       216.85976       22.874147       1
       9203.5772       297.83306       19.516283       1
       9215.8658       283.16897       22.616677       1
       9228.1545       302.52938       19.732168       1
       9240.4431       262.02273       22.445948       1
       9252.7318       390.43321       19.538682       1
       9265.0204       275.54921       22.263199       1
       9277.3091       256.75278       19.139760       1
       9289.5978       294.56930       21.965812       1
       9301.8864       242.89355       19.051575       1
       9314.1751       250.04972       21.851139       1
       9326.4637       250.96483       19.192658       1
       9338.7524       299.70898       22.137312       1
       9351.0410       337.62779       19.931682       1
       9363.3297       327.87387       21.863104       1
       9375.6184       278.94338       19.083247       1
       9387.9070       301.42126       21.906947       1
       9400.1957       292.27774       19.011176       1
       9412.4843       299.62745       21.745276       1
       9424.7730       263.67869       18.742856       1
       9437.0617       324.75297       21.397559       1
       9449.3503       350.24808       19.156813       1
       9461.6390       342.96478       21.558276       1
       9473.9276       311.99561       18.578272       1
       9486.2163       263.90472       21.362751       1
       9498.5049       230.71809       18.279488       1
       9510.7936       340.87268       21.238486       1
       9523.0823       310.83583       18.319773       1
       9535.3709       359.25532       21.246032       1
       9547.6596       343.66546       18.224390       1
       9559.9482       329.47260       21.080949       1
       9572.2369       295.06534       20.727064       1
       9584.5255       298.08320       21.150652       1
       9596.8142       335.04138       20.704389       1
       9609.1029       314.42733       20.963876       1
       9621.3915       270.76989       18.051660       1
       9633.6802       358.87081       21.008390       1
       9645.9688       290.50471       18.080839       1
       9658.2575       351.47616       20.772276       1
       9670.5462       292.86058       18.075989       1
       9682.8348       371.75447       20.817419       1
       9695.1235       269.36587       18.177575       1
       9707.4121       364.08158       20.833476       1
       9719.7008       313.72101       17.809243       1
       9731.9894       276.61621       20.538507       1
       9744.2781       329.35681       17.846162       1
       9756.5668       252.57380       20.276755       1
       9768.8554       344.61030       17.876233       1
       9781.1441       282.45304       20.341993       1
       9793.4327       281.45103       17.673993       1
       9805.7214       279.67502       20.228093       1
       9818.0101       326.96391       17.679637       1
       9830.2987       262.26842       20.234261       1
       9842.5874       250.37666       17.443018       1
       9854.8760       328.70593       20.164031       1
       9867.1647       337.27853       17.619240       1
       9879.4533       292.75905       20.173485       1
       9891.7420       288.66017       17.765126       1
       9904.0307       294.76125       20.225122       1
       9916.3193       330.04983       17.590707       1
       9928.6080       349.56318       19.864685       1
       9940.8966       288.47574       17.416254       1
       9953.1853       330.80817       19.968846       1
       9965.4739       312.06582       17.565798       1
       9977.7626       316.65018       24.953772       1
       9990.0513       326.21532       17.216921       1
       10002.340       346.84273       20.261566       1
       10014.629       334.45155       19.547590       1
       10026.917       246.97314       19.594069       1
       10039.206       306.44578       17.216446       1
       10051.495       337.65537       19.620706       1
       10063.783       239.34266       17.105049       1
       10076.072       338.78057       20.859817       1
       10088.361       292.10647       17.244928       1
       10100.649       315.34324       19.454069       1
       10112.938       275.79482       17.004441       1
       10125.227       294.30323       19.591687       1
       10137.515       297.98186       17.127134       1
       10149.804       308.17691       23.558886       1
       10162.092       273.20621       17.145574       1
       10174.381       285.41893       23.222074       1
       10186.670       268.61456       17.678649       1
       10198.958       313.44690       20.241280       1
       10211.247       351.64928       16.790804       1
       10223.536       316.47388       23.267442       1
       10235.824       312.67385       16.810093       1
       10248.113       295.76958       23.109935       1
       10260.402       330.53517       16.773377       1
       10272.690       376.52395       19.502484       1
       10284.979       363.15131       16.489938       1
       10297.268       323.56819       19.057011       1
       10309.556       283.01037       16.609314       1
       10321.845       326.76104       23.015055       1
       10334.134       291.03925       18.942186       1
       10346.422       322.30392       18.996021       1
       10358.711       290.02261       16.931142       1
       10371.000       290.49264       19.008751       1
       10383.288       295.31911       16.771904       1
       10395.577       358.14675       19.188947       1
       10407.866       314.64609       22.954486       1
       10420.154       305.24951       18.790127       1
       10432.443       262.61705       17.962167       1
       10444.732       309.45328       18.754429       1
       10457.020       308.58419       16.573815       1
       10469.309       300.12637       18.940067       1
       10481.598       324.61318       16.224050       1
       10493.886       285.60615       18.880073       1
       10506.175       358.85330       16.444529       1
       10518.464       251.35496       19.044718       1
       10530.752       304.55757       16.303621       1
       10543.041       298.90291       19.396460       1
       10555.330       321.46107       16.403083       1
       10567.618       317.08889       18.851780       1
       10579.907       307.76679       16.537672       1
       10592.196       308.54443       18.780707       1
       10604.484       295.04103       16.272550       1
       10616.773       306.68813       18.648847       1
       10629.061       284.60330       16.208246       1
       10641.350       299.63636       18.787354       1
       10653.639       283.84559       16.103469       1
       10665.927       250.62096       18.797066       1
       10678.216       259.82709       16.058754       1
       10690.505       250.16173       18.444285       1
       10702.793       262.61758       18.167526       1
       10715.082       281.38141       18.377330       1
       10727.371       235.86659       15.921036       1
       10739.659       258.60934       18.435569       1
       10751.948       269.63831       15.961667       1
       10764.237       271.55898       22.017223       1
       10776.525       274.81966       15.879581       1
       10788.814       291.68788       18.308855       1
       10801.103       263.28974       19.311108       1
       10813.391       290.44019       18.317785       1
       10825.680       330.72950       18.001315       1
       10837.969       287.83539       22.629042       1
       10850.257       261.15759       16.107881       1
       10862.546       270.79130       18.427608       1
       10874.835       255.95277       16.006814       1
       10887.123       285.17341       18.067289       1
       10899.412       305.30607       15.989873       1
       10911.701       265.82733       18.373654       1
       10923.989       282.75312       17.596749       1
       10936.278       322.92376       18.252742       1
       10948.567       254.27385       15.830770       1
       10960.855       294.25628       18.169963       1
       10973.144       281.91286       15.959400       1
       10985.433       302.73939       18.285513       1
       10997.721       312.37214       15.989590       1
       11010.010       335.77750       18.479110       1
       11022.299       329.66674       15.852760       1
       11034.587       335.09702       18.407228       1
       11046.876       276.47112       15.928914       1
       11059.165       297.15185       18.512064       1
       11071.453       334.25196       15.831013       1
       11083.742       338.48549       18.692371       1
       11096.030       288.11628       15.947172       1
       11108.319       348.09728       18.398928       1
       11120.608       301.49988       16.043064       1
       11132.896       269.99600       18.226107       1
       11145.185       294.00687       15.990534       1
       11157.474       336.14342       18.446980       1
       11169.762       296.60513       16.012547       1
       11182.051       284.48806       18.354189       1
       11194.340       286.74747       16.011700       1
       11206.628       258.10576       18.486718       0
       11218.917       282.85858       15.976845       0
       11231.206       305.27738       18.285297       0
       11243.494       298.01538       15.818006       0
       11255.783       273.66039       18.575939       0
       11268.072       311.91816       15.921771       0
       11280.360       313.20263       18.553651       0
       11292.649       292.86777       15.956815       0
       11304.938       318.89779       18.618140       0
       11317.226       300.10569       15.990875       0
       11329.515       269.57013       18.362404       0
       11341.804       308.13216       16.162431       0
       11354.092       285.36732       18.787056       0
       11366.381       275.95813       18.408612       0
       11378.670       287.22390       19.001747       0
       11390.958       295.22400       16.792314       0
       11403.247       291.75077       20.085402       0
       11415.536       333.58113       17.989465       0
       11427.824       290.59338       21.534493       0
       11440.113       233.71121       19.755060       0
       11452.402       259.38056       23.755588       0
       11464.690       184.66495       21.933805       0
       11476.979       253.88912       26.767080       0
       11489.268       245.04407       24.567842       0
       11501.556       212.57053       30.290914       0
       11513.845       197.02298       27.531730       0
       11526.134       186.43397       32.622721       0
       11538.422       307.87397       30.049910       0
       11550.711       192.50108       36.231788       0
       11562.999       398.99058       33.591771       0
       11575.288       110.01372       41.259257       0
       11587.577       32.326133       39.344513       0
       11599.865       151.53198       49.594350       0
       11612.154       502.58259       47.485580       0
       11624.443       546.20020       61.079376       0
       11636.731       457.46173       59.588289       0
       11649.020       372.11630       75.069565       0
       11661.309      -235.45252       72.462968       0
       11673.597      -566.26063       90.076050       0
       11685.886      -849.74763       85.258598       0
       11698.175       2144.4851       112.74656       0
       11710.463      -403.70457       113.07427       0
       11722.752      -23.506000       145.54315       0
       11735.041       440.11308       144.68714       0
       11747.329      -1392.1343       193.23182       0
       11759.618       153.14551       188.29348       0
       11771.907       9415.0409       228.51088       0
       11784.195       6233.0853       204.06047       0
       11796.484      -943.97981       234.59788       0
       11808.773       2673.8444       198.94715       0
       11821.061      -3186.3650       226.99158       0
       11833.350      -7287.2642       200.64610       0
       11845.639       64.887046       235.94198       0
       11857.927       9261.7974       215.57371       0
       11870.216       6878.6513       262.34144       0
       11882.505      -4418.2477       249.52384       0
       11894.793      -4981.4139       311.79641       0
       11907.082       22078.537       337.22432       0
       11919.371       8838.8907       455.31239       0
