#WAVELENGTH FLUX ERROR MASK
       7507.7423       6174.5657       30260.956       0
       7520.0310      -21381.378       26574.041       0
       7532.3197      -13270.259       15651.897       0
       7544.6083       4554.3311       14741.515       0
       7556.8970      -9753.3731       10104.098       0
       7569.1856       4399.2705       9228.7408       0
       7581.4743      -90.298564       6279.2220       0
       7593.7630      -5552.6847       5868.7559       0
       7606.0516      -1022.1509       4340.5653       0
       7618.3403      -3092.7456       4272.8760       0
       7630.6289      -1156.5483       3202.5056       0
       7642.9176      -2660.8346       3103.4766       0
       7655.2062       2019.4951       2360.8096       0
       7667.4949      -2011.1749       2237.4824       0
       7679.7836      -2333.5250       1629.2185       0
       7692.0722      -1072.4505       1559.0329       0
       7704.3609      -921.23044       1251.7784       0
       7716.6495       727.67023       1148.4196       0
       7728.9382      -718.55134       877.45927       0
       7741.2268       1642.1549       905.93545       0
       7753.5155       525.12129       715.93969       0
       7765.8042       628.64855       765.86552       0
       7778.0928       650.91628       607.99539       0
       7790.3815       676.07261       637.17605       0
       7802.6701      -249.15927       501.95133       0
       7814.9588       9.6249239       519.23970       0
       7827.2475       793.59176       400.11685       0
       7839.5361       575.83740       422.85492       0
       7851.8248      -51.412378       326.68064       0
       7864.1134       15.087863       341.73011       0
       7876.4021       132.48529       273.87929       0
       7888.6907       217.16162       300.56452       0
       7900.9794       99.564621       239.83526       0
       7913.2681       472.97774       264.61515       0
       7925.5567       251.85197       213.11174       0
       7937.8454       408.03908       234.16237       0
       7950.1340       370.31892       194.21769       0
       7962.4227       157.41957       213.05311       0
       7974.7113       68.744470       179.83629       0
       7987.0000       200.61724       198.14002       0
       7999.2887       207.30411       165.48707       0
       8011.5773       194.51298       184.34626       0
       8023.8660       45.804972       155.04045       0
       8036.1546       201.43412       173.08994       0
       8048.4433       232.12862       148.36793       0
       8060.7320       393.49921       208.06883       0
       8073.0206       129.44096       142.81040       0
       8085.3093       117.36637       159.12109       0
       8097.5979       233.88504       154.77131       0
       8109.8866       335.26897       154.91263       0
       8122.1752       164.41903       132.84931       0
       8134.4639       334.43581       149.38917       0
       8146.7526       214.50272       124.47830       0
       8159.0412       74.348278       142.79327       1
       8171.3299       254.04707       120.33479       1
       8183.6185       5.8107396       137.02672       1
       8195.9072       135.02582       116.26509       1
       8208.1959       129.00094       130.00530       1
       8220.4845       212.68828       124.91622       1
       8232.7732       212.21979       124.73646       1
       8245.0618       168.81553       105.71098       1
       8257.3505       95.168332       119.66134       1
       8269.6391       170.73849       100.06521       1
       8281.9278       289.59524       111.79124       1
       8294.2165       223.03387       96.035210       1
       8306.5051       180.62815       108.18956       1
       8318.7938       172.06973       102.49452       1
       8331.0824       263.22111       103.67220       1
       8343.3711       137.66925       90.271180       1
       8355.6597       298.49925       100.01863       1
       8367.9484       252.88397       86.872668       1
       8380.2371       259.80162       98.624724       1
       8392.5257       286.01026       83.891485       1
       8404.8144       234.02009       96.075867       1
       8417.1030       209.23898       82.886026       1
       8429.3917       207.95961       92.753751       1
       8441.6804       313.54740       80.142464       1
       8453.9690       295.96970       90.610425       1
       8466.2577       238.52263       76.741797       1
       8478.5463       323.76207       85.797600       1
       8490.8350       294.58153       75.617240       1
       8503.1236       286.93232       85.894052       1
       8515.4123       399.34578       73.297547       1
       8527.7010       279.86677       82.721713       1
       8539.9896       163.60563       72.335049       1
       8552.2783       214.67227       81.621749       1
       8564.5669       243.12030       71.651181       1
       8576.8556       355.70699       81.377429       1
       8589.1442       273.02850       70.667705       1
       8601.4329       203.29374       80.779205       1
       8613.7216       287.51198       69.916578       1
       8626.0102       141.57209       80.846175       1
       8638.2989       183.84068       70.002843       1
       8650.5875       416.51732       80.524180       1
       8662.8762       150.20574       68.003269       1
       8675.1649       275.92721       78.379930       1
       8687.4535       303.55994       68.699288       1
       8699.7422       337.04054       75.124094       1
       8712.0308       353.70325       71.567439       1
       8724.3195       283.71005       72.091555       1
       8736.6081       265.10712       61.895615       1
       8748.8968       169.87055       69.437735       1
       8761.1855       290.96084       59.698847       1
       8773.4741       258.89136       68.090353       1
       8785.7628       231.53097       59.224165       1
       8798.0514       291.80425       67.676082       1
       8810.3401       215.58973       58.330327       1
       8822.6288       333.29614       66.400312       1
       8834.9174       200.18634       57.577381       1
       8847.2061       273.41828       66.414311       1
       8859.4947       209.63876       61.867418       1
       8871.7834       337.33770       76.870864       1
       8884.0720       247.17823       55.120491       1
       8896.3607       298.87121       62.317987       1
       8908.6494       375.37183       79.633309       1
       8920.9380       240.07792       75.645483       1
       8933.2267       228.59781       53.671880       1
       8945.5153       284.17682       59.571010       1
       8957.8040       304.45129       52.320725       1
       8970.0926       311.55531       59.313551       1
       8982.3813       282.87679       51.311196       1
       8994.6700       266.27713       58.298918       1
       9006.9586       205.18739       50.191177       1
       9019.2473       308.79870       57.331583       1
       9031.5359       247.06399       50.100923       1
       9043.8246       252.32435       57.641087       1
       9056.1133       205.25541       49.936475       1
       9068.4019       285.72557       57.195962       1
       9080.6906       277.36583       49.711143       1
       9092.9792       238.76601       56.980648       1
       9105.2679       226.36183       48.579316       1
       9117.5565       243.90034       54.926528       1
       9129.8452       309.51973       47.725667       1
       9142.1339       338.97293       54.406410       1
       9154.4225       194.64855       46.768465       1
       9166.7112       322.18363       53.255783       1
       9178.9998       290.91134       45.517827       1
       9191.2885       216.85976       52.610503       1
       9203.5772       297.83306       44.679770       1
       9215.8658       283.16897       51.548360       1
       9228.1545       302.52938       44.799992       1
       9240.4431       262.02273       50.786763       1
       9252.7318       390.43321       44.072849       1
       9265.0204       275.54921       50.076902       1
       9277.3091       256.75278       42.926673       1
       9289.5978       294.56930       49.124489       1
       9301.8864       242.89355       42.489502       1
       9314.1751       250.04972       48.603295       1
       9326.4637       250.96483       42.581690       1
       9338.7524       299.70898       48.999322       1
       9351.0410       337.62779       44.027248       1
       9363.3297       327.87387       48.197093       1
       9375.6184       278.94338       41.974523       1
       9387.9070       301.42126       48.061807       1
       9400.1957       292.27774       41.579431       1
       9412.4843       299.62745       47.395131       1
       9424.7730       263.67869       40.698893       1
       9437.0617       324.75297       46.293204       1
       9449.3503       350.24808       41.306079       1
       9461.6390       342.96478       46.337515       1
       9473.9276       311.99561       39.815243       1
       9486.2163       263.90472       45.655250       1
       9498.5049       230.71809       38.961849       1
       9510.7936       340.87268       45.150144       1
       9523.0823       310.83583       38.843853       1
       9535.3709       359.25532       44.930689       1
       9547.6596       343.66546       38.439475       1
       9559.9482       329.47260       44.352886       1
       9572.2369       295.06534       43.502890       1
       9584.5255       298.08320       44.274452       1
       9596.8142       335.04138       43.216304       1
       9609.1029       314.42733       43.632281       1
       9621.3915       270.76989       37.464573       1
       9633.6802       358.87081       43.497686       1
       9645.9688       290.50471       37.362368       1
       9658.2575       351.47616       42.849188       1
       9670.5462       292.86058       37.228387       1
       9682.8348       371.75447       42.794699       1
       9695.1235       269.36587       37.291326       1
       9707.4121       364.08158       42.646180       1
       9719.7008       313.72101       36.369730       1
       9731.9894       276.61621       41.835187       1
       9744.2781       329.35681       36.253199       1
       9756.5668       252.57380       41.086985       1
       9768.8554       344.61030       36.137011       1
       9781.1441       282.45304       41.037185       1
       9793.4327       281.45103       35.592245       1
       9805.7214       279.67502       40.679796       1
       9818.0101       326.96391       35.514463       1
       9830.2987       262.26842       40.602348       1
       9842.5874       250.37666       34.965852       1
       9854.8760       328.70593       40.377955       1
       9867.1647       337.27853       35.244500       1
       9879.4533       292.75905       40.309063       1
       9891.7420       288.66017       35.457319       1
       9904.0307       294.76125       40.323040       1
       9916.3193       330.04983       35.029989       1
       9928.6080       349.56318       39.507488       1
       9940.8966       288.47574       34.580445       1
       9953.1853       330.80817       39.562256       1
       9965.4739       312.06582       34.704715       1
       9977.7626       316.65018       49.132669       1
       9990.0513       326.21532       33.777380       1
       10002.340       346.84273       39.606140       1
       10014.629       334.45155       38.088530       1
       10026.917       246.97314       38.078225       1
       10039.206       306.44578       33.392683       1
       10051.495       337.65537       38.009342       1
       10063.783       239.34266       33.117421       1
       10076.072       338.78057       40.388426       1
       10088.361       292.10647       33.386345       1
       10100.649       315.34324       37.654072       1
       10112.938       275.79482       32.885937       1
       10125.227       294.30323       37.839459       1
       10137.515       297.98186       33.023038       1
       10149.804       308.17691       45.332543       1
       10162.092       273.20621       32.928701       1
       10174.381       285.41893       44.516385       1
       10186.670       268.61456       33.835448       1
       10198.958       313.44690       38.682623       1
       10211.247       351.64928       32.034576       1
       10223.536       316.47388       44.306147       1
       10235.824       312.67385       31.929551       1
       10248.113       295.76958       43.770624       1
       10260.402       330.53517       31.679985       1
       10272.690       376.52395       36.730408       1
       10284.979       363.15131       30.971931       1
       10297.268       323.56819       35.698960       1
       10309.556       283.01037       31.036330       1
       10321.845       326.76104       42.915231       1
       10334.134       291.03925       35.271730       1
       10346.422       322.30392       35.334953       1
       10358.711       290.02261       31.463635       1
       10371.000       290.49264       35.299286       1
       10383.288       295.31911       31.132327       1
       10395.577       358.14675       35.604453       1
       10407.866       314.64609       42.567348       1
       10420.154       305.24951       34.814582       1
       10432.443       262.61705       33.237567       1
       10444.732       309.45328       34.660104       1
       10457.020       308.58419       30.597461       1
       10469.309       300.12637       34.939214       1
       10481.598       324.61318       29.916813       1
       10493.886       285.60615       34.810241       1
       10506.175       358.85330       30.324156       1
       10518.464       251.35496       35.127902       1
       10530.752       304.55757       30.081542       1
       10543.041       298.90291       35.789692       1
       10555.330       321.46107       30.259817       1
       10567.618       317.08889       34.768074       1
       10579.907       307.76679       30.489544       1
       10592.196       308.54443       34.597442       1
       10604.484       295.04103       29.939949       1
       10616.773       306.68813       34.248001       1
       10629.061       284.60330       29.694047       1
       10641.350       299.63636       34.326494       1
       10653.639       283.84559       29.337967       1
       10665.927       250.62096       34.158761       1
       10678.216       259.82709       29.118232       1
       10690.505       250.16173       33.392456       1
       10702.793       262.61758       32.858572       1
       10715.082       281.38141       33.219676       1
       10727.371       235.86659       28.771700       1
       10739.659       258.60934       33.300263       1
       10751.948       269.63831       28.816324       1
       10764.237       271.55898       39.722584       1
       10776.525       274.81966       28.630608       1
       10788.814       291.68788       32.994878       1
       10801.103       263.28974       34.786158       1
       10813.391       290.44019       32.981502       1
       10825.680       330.72950       32.392296       1
       10837.969       287.83539       40.684077       1
       10850.257       261.15759       28.926230       1
       10862.546       270.79130       33.041817       1
       10874.835       255.95277       28.655020       1
       10887.123       285.17341       32.293184       1
       10899.412       305.30607       28.542138       1
       10911.701       265.82733       32.765372       1
       10923.989       282.75312       31.358989       1
       10936.278       322.92376       32.516366       1
       10948.567       254.27385       28.197403       1
       10960.855       294.25628       32.364675       1
       10973.144       281.91286       28.430640       1
       10985.433       302.73939       32.580627       1
       10997.721       312.37214       28.490229       1
       11010.010       335.77750       32.920078       1
       11022.299       329.66674       28.230067       1
       11034.587       335.09702       32.759264       1
       11046.876       276.47112       28.329116       1
       11059.165       297.15185       32.898545       1
       11071.453       334.25196       28.117898       1
       11083.742       338.48549       33.186643       1
       11096.030       288.11628       28.308860       1
       11108.319       348.09728       32.663911       1
       11120.608       301.49988       28.487157       1
       11132.896       269.99600       32.373259       1
       11145.185       294.00687       28.410271       1
       11157.474       336.14342       32.782942       1
       11169.762       296.60513       28.460313       1
       11182.051       284.48806       32.622610       1
       11194.340       286.74747       28.453767       1
       11206.628       258.10576       32.841255       0
       11218.917       282.85858       28.371201       0
       11231.206       305.27738       32.456726       0
       11243.494       298.01538       28.068356       0
       11255.783       273.66039       32.955850       0
       11268.072       311.91816       28.248085       0
       11280.360       313.20263       32.920034       0
       11292.649       292.86777       28.310786       0
       11304.938       318.89779       33.026528       0
       11317.226       300.10569       28.355669       0
       11329.515       269.57013       32.589107       0
       11341.804       308.13216       28.774147       0
       11354.092       285.36732       33.682380       0
       11366.381       275.95813       33.412373       0
       11378.670       287.22390       35.125694       0
       11390.958       295.22400       31.839537       0
       11403.247       291.75077       39.345463       0
       11415.536       333.58113       36.710447       0
       11427.824       290.59338       46.085773       0
       11440.113       233.71121       44.664625       0
       11452.402       259.38056       57.006848       0
       11464.690       184.66495       56.122962       0
       11476.979       253.88912       73.031556       0
       11489.268       245.04407       71.365411       0
       11501.556       212.57053       93.304111       0
       11513.845       197.02298       89.409177       0
       11526.134       186.43397       111.56475       0
       11538.422       307.87397       108.04688       0
       11550.711       192.50108       137.90313       0
       11562.999       398.99058       136.32779       0
       11575.288       110.01372       180.43686       0
       11587.577       32.326133       187.72570       0
       11599.865       151.53198       260.49673       0
       11612.154       502.58259       277.52282       0
       11624.443       546.20020       397.40125       0
       11636.731       457.46173       431.46595       0
       11649.020       372.11630       602.89778       0
       11661.309      -235.45252       640.63571       0
       11673.597      -566.26063       876.10367       0
       11685.886      -849.74763       911.34096       0
       11698.175       2144.4851       1356.0425       0
       11710.463      -403.70457       1551.7924       0
       11722.752      -23.506000       2273.6858       0
       11735.041       440.11308       2576.7606       0
       11747.329      -1392.1343       3949.2214       0
       11759.618       153.14551       4338.0879       0
       11771.907       9415.0409       5625.6121       0
       11784.195       6233.0853       5144.4248       0
       11796.484      -943.97981       5917.0083       0
       11808.773       2673.8444       4949.0859       0
       11821.061      -3186.3650       5568.4434       0
       11833.350      -7287.2642       4924.7480       0
       11845.639       64.887046       5938.4295       0
       11857.927       9261.7974       5676.8510       0
       11870.216       6878.6513       7410.1005       0
       11882.505      -4418.2477       7641.6144       0
       11894.793      -4981.4139       10430.640       0
       11907.082       22078.537       12251.549       0
       11919.371       8838.8907       17709.278       0
