#WAVELENGTH FLUX ERROR MASK
       7496.4350       7423.8400       20676.820       0
       7508.6878       9970.6063       14124.860       0
       7520.9405       12223.459       14662.494       0
       7533.1932       2508.7451       10758.105       0
       7545.4459      -4710.0967       10054.740       0
       7557.6986       659.19489       6422.7223       0
       7569.9514      -624.37638       6278.0985       0
       7582.2041       1371.3431       4034.2819       0
       7594.4568      -1429.0008       4084.8026       0
       7606.7095       644.24236       2752.4062       0
       7618.9623      -116.31274       2887.8065       0
       7631.2150       233.06353       2016.4416       0
       7643.4677      -1018.7571       2140.4752       0
       7655.7204       1312.6781       1500.8130       0
       7667.9732       700.75230       1559.0219       0
       7680.2259       1366.7647       1048.2164       0
       7692.4786       925.07089       1086.5488       0
       7704.7313      -22.143070       728.98604       0
       7716.9840      -159.69907       783.87749       0
       7729.2368       118.92347       557.43029       0
       7741.4895       165.82469       624.62570       0
       7753.7422      -195.17595       456.15496       0
       7765.9949      -178.90478       524.20915       0
       7778.2477       285.90618       390.92777       0
       7790.5004      -165.17567       443.60024       0
       7802.7531       154.42350       328.08134       0
       7815.0058      -166.97072       361.23619       0
       7827.2585       102.76731       263.23664       0
       7839.5113      -43.627116       291.39781       0
       7851.7640       250.97776       217.54047       0
       7864.0167       292.84012       240.06250       0
       7876.2694       67.414330       180.47224       0
       7888.5222      -73.639556       201.20681       0
       7900.7749       155.87854       152.85105       0
       7913.0276       140.30317       178.86441       0
       7925.2803       28.965533       136.70003       0
       7937.5331       75.934754       161.86752       0
       7949.7858       111.39711       124.36153       0
       7962.0385      -60.511631       145.30084       0
       7974.2912       28.965127       113.23065       0
       7986.5439       134.97966       136.30702       0
       7998.7967       68.090734       106.04016       0
       8011.0494       50.482839       129.72012       0
       8023.3021       35.211153       99.327077       0
       8035.5548       2.6057587       118.95236       0
       8047.8076       73.790557       94.773895       0
       8060.0603       34.246751       114.68582       0
       8072.3130       63.910331       91.015594       0
       8084.5657       68.890101       110.84676       0
       8096.8185       80.798683       88.404387       0
       8109.0712      -15.842273       106.33388       0
       8121.3239       77.389405       84.995328       0
       8133.5766       95.586542       103.51395       0
       8145.8293       29.025457       81.663549       0
       8158.0821       134.41042       100.58761       1
       8170.3348       71.727455       79.334206       1
       8182.5875       93.311523       96.174478       1
       8194.8402       97.579881       75.954660       1
       8207.0930       21.864181       91.815074       1
       8219.3457       117.32476       76.028383       1
       8231.5984       66.319652       88.137449       1
       8243.8511       80.163259       69.074447       1
       8256.1038       111.07206       84.344730       1
       8268.3566       29.230687       65.596207       1
       8280.6093       47.780885       79.683199       1
       8292.8620       124.54809       65.390151       1
       8305.1147       36.474897       75.889114       1
       8317.3675       61.081309       59.981751       1
       8329.6202       98.131644       73.860357       1
       8341.8729      -1.9024738       57.411336       1
       8354.1256       75.319839       71.318342       1
       8366.3784       75.267143       56.697402       1
       8378.6311       60.948987       69.484568       1
       8390.8838       57.181609       54.901079       1
       8403.1365       46.847092       67.368033       1
       8415.3892       71.550206       57.036290       1
       8427.6420       67.886427       66.981852       1
       8439.8947       102.13320       56.257397       1
       8452.1474      -5.0921974       26680890.       1
       8464.4001       75.904362       50.950078       1
       8476.6529       123.12418       62.524546       1
       8488.9056       71.280392       49.472277       1
       8501.1583       87.106324       60.794875       1
       8513.4110       78.726009       48.271133       1
       8525.6638       83.682331       59.097961       1
       8537.9165       51.736589       47.099864       1
       8550.1692       102.74519       58.205743       1
       8562.4219       32.282960       46.287226       1
       8574.6746       81.209877       57.157836       1
       8586.9274       89.960357       58.493674       1
       8599.1801       83.458472       56.918391       1
       8611.4328       60.140374       45.632856       1
       8623.6855       85.465745       56.470780       1
       8635.9383       65.922557       45.185815       1
       8648.1910       136.53116       56.266995       1
       8660.4437       58.962363       44.660948       1
       8672.6964       68.615479       54.431868       1
       8684.9491       90.658579       43.689253       1
       8697.2019       87.039604       22328090.       1
       8709.4546       62.246467       41.948296       1
       8721.7073       29.001199       50.549253       1
       8733.9600       47.335472       40.205087       1
       8746.2128       63.016279       49.070112       1
       8758.4655       50.401412       38.893907       1
       8770.7182       70.969553       47.654478       1
       8782.9709       49.890367       38.014995       1
       8795.2237       85.888193       46.704499       1
       8807.4764       66.440078       37.234964       1
       8819.7291       88.282412       45.667159       1
       8831.9818       52.926733       43.551188       1
       8844.2345       52.795889       44.291238       1
       8856.4873       42.204514       35.243290       1
       8868.7400       66.321070       43.227366       1
       8880.9927       90.668531       34.506477       1
       8893.2454       71.280782       42.038571       1
       8905.4982       65.256325       33.601133       1
       8917.7509       42.089779       40.926873       1
       8930.0036       59.100460       32.857615       1
       8942.2563       101.22191       40.045182       1
       8954.5091       81.384970       31.827930       1
       8966.7618       80.190929       39.073792       1
       8979.0145       85.817709       31.113724       1
       8991.2672       66.440599       38.262242       1
       9003.5199       67.271043       30.307697       1
       9015.7727       54.222858       37.351123       1
       9028.0254       30.429871       29.599182       1
       9040.2781       83.366414       37.432612       1
       9052.5308       60.066407       29.654506       1
       9064.7836       75.169058       36.856785       1
       9077.0363       80.892469       29.567870       1
       9089.2890       67.604260       36.288785       1
       9101.5417       66.703878       29.007154       1
       9113.7944       91.336006       35.974444       1
       9126.0472       77.109971       28.366981       1
       9138.2999       62.995264       34.978939       1
       9150.5526       85.532854       27.847113       1
       9162.8053       78.621633       34.293155       1
       9175.0581       59.395803       28.221641       1
       9187.3108       73.130531       33.602687       1
       9199.5635       67.005859       27.942662       1
       9211.8162       63.933781       33.629874       1
       9224.0690       85.532217       27.077935       1
       9236.3217       53.207979       33.066189       1
       9248.5744       74.475578       26.677263       1
       9260.8271       97.258994       33.117213       1
       9273.0798       66.092916       26.245575       1
       9285.3326       63.547001       32.332315       1
       9297.5853       69.311456       25.970681       1
       9309.8380       58.241821       31.995525       1
       9322.0907       75.180121       25.696540       1
       9334.3435       71.862744       31.625241       1
       9346.5962       70.923312       25.380810       1
       9358.8489       67.186044       31.391066       1
       9371.1016       71.712340       25.315386       1
       9383.3544       72.841403       31.166669       1
       9395.6071       61.444892       24.954018       1
       9407.8598       77.224500       31.773260       1
       9420.1125       72.196786       26.082935       1
       9432.3652       71.763433       31.332758       1
       9444.6180       74.082345       24.230620       1
       9456.8707       78.105272       29.604705       1
       9469.1234       41.019867       23.651777       1
       9481.3761       68.501043       29.291564       1
       9493.6289       64.821382       23.608535       1
       9505.8816       65.044914       28.988612       1
       9518.1343       91.341984       23.411090       1
       9530.3870       83.465701       28.716034       1
       9542.6397       76.500848       22.995818       1
       9554.8925       57.862306       28.309451       1
       9567.1452       67.778394       23.873127       1
       9579.3979       63.808761       28.073342       1
       9591.6506       87.224725       22.662445       1
       9603.9034       69.566739       28.637334       1
       9616.1561       71.490575       22.194797       1
       9628.4088       60.873086       28.033615       1
       9640.6615       75.536972       22.092663       1
       9652.9143       77.410683       27.231602       1
       9665.1670       75.666280       21.922747       1
       9677.4197       71.916689       27.207295       1
       9689.6724       73.200525       21.804222       1
       9701.9251       81.258366       26.907732       1
       9714.1779       86.748292       21.672972       1
       9726.4306       88.161931       27.162210       1
       9738.6833       68.738889       21.333692       1
       9750.9360       58.136731       26.271378       1
       9763.1888       70.698375       21.246171       1
       9775.4415       55.189670       25.958516       1
       9787.6942       67.115144       20.884953       1
       9799.9469       59.514125       25.860044       1
       9812.1996       74.942776       20.767541       1
       9824.4524       71.770286       25.849177       1
       9836.7051       76.596068       20.696160       1
       9848.9578       73.181769       25.753763       1
       9861.2105       76.926683       20.615832       1
       9873.4633       61.835269       25.487151       1
       9885.7160       63.226955       20.456818       1
       9897.9687       84.802490       25.410663       1
       9910.2214       56.803222       20.456064       1
       9922.4742       77.148165       25.502508       1
       9934.7269       39.077277       20.063282       1
       9946.9796       77.213848       25.362179       1
       9959.2323       75.654402       20.562686       1
       9971.4850       75.949500       25.768696       1
       9983.7378       77.742249       20.401760       1
       9995.9905       66.401291       24.968706       1
       10008.243       60.930710       20.061503       1
       10020.496       70.995329       24.916768       1
       10032.749       76.448448       19.824563       1
       10045.001       75.268445       24.505118       1
       10057.254       83.620596       20.030395       1
       10069.507       97.512924       24.602883       1
       10081.760       83.838035       19.614327       1
       10094.012       55.316069       22.004506       1
       10106.265       83.325531       19.654237       1
       10118.518       75.838526       24.363891       1
       10130.770       64.784624       19.360738       1
       10143.023       67.802174       24.237408       1
       10155.276       81.272870       19.575321       1
       10167.529       98.772497       24.421545       1
       10179.781       79.762526       19.428203       1
       10192.034       84.535766       24.072859       1
       10204.287       59.891061       18.601086       1
       10216.540       68.576581       23.269360       1
       10228.792       86.724382       18.656073       1
       10241.045       78.825815       23.275579       1
       10253.298       77.732640       18.481796       1
       10265.550       61.713546       22.902063       1
       10277.803       72.511325       18.227189       1
       10290.056       63.366255       22.673724       1
       10302.309       63.606483       18.026487       1
       10314.561       81.089122       22.633193       1
       10326.814       76.866404       17.926710       1
       10339.067       74.831009       22.306158       1
       10351.319       63.038515       17.707983       1
       10363.572       67.295258       22.159023       1
       10375.825       70.416619       18.510055       1
       10388.078       60.705712       22.017763       1
       10400.330       62.229387       17.575760       1
       10412.583       65.367144       22.021624       1
       10424.836       72.716393       20.573234       1
       10437.089       61.222657       21.912419       1
       10449.341       81.208285       17.591615       1
       10461.594       65.347069       22.027528       1
       10473.847       62.576984       17.749784       1
       10486.099       74.492017       22.129232       1
       10498.352       62.973296       17.668760       1
       10510.605       62.551186       21.901602       1
       10522.858       70.459337       17.675828       1
       10535.110       65.907959       21.976928       1
       10547.363       73.568230       17.710127       1
       10559.616       74.393608       22.888711       1
       10571.868       66.944742       17.738231       1
       10584.121       70.691480       21.941373       1
       10596.374       63.069512       17.663106       1
       10608.627       67.255766       21.908538       1
       10620.879       44.414002       18.795729       1
       10633.132       80.479483       22.081327       1
       10645.385       48.690534       17.492924       1
       10657.638       59.945945       21.690502       1
       10669.890       63.080646       17.408319       1
       10682.143       75.399827       21.639113       1
       10694.396       55.586369       17.097037       1
       10706.648       67.329284       21.342134       1
       10718.901       58.268305       17.091562       1
       10731.154       60.143673       21.144338       1
       10743.407       63.410658       17.027124       1
       10755.659       68.161233       21.037475       1
       10767.912       52.023198       16.859205       1
       10780.165       58.890664       21.131412       1
       10792.417       54.520287       16.930885       1
       10804.670       55.625540       21.054224       1
       10816.923       55.656611       16.830339       1
       10829.176       55.891484       20.940942       1
       10841.428       66.427274       16.942298       1
       10853.681       56.192938       20.902902       1
       10865.934       69.185383       16.902202       1
       10878.187       46.870288       20.777461       1
       10890.439       67.674809       18.513870       1
       10902.692       60.387224       20.774697       1
       10914.945       63.505786       16.604041       1
       10927.197       69.188793       20.806801       1
       10939.450       62.925486       19.799357       1
       10951.703       67.336694       20.675551       1
       10963.956       67.411861       16.337875       1
       10976.208       72.683486       20.339733       1
       10988.461       81.409677       16.430864       1
       11000.714       69.839102       20.401179       1
       11012.966       67.032919       16.329918       1
       11025.219       88.863961       20.551822       1
       11037.472       69.440485       16.351468       1
       11049.725       81.447583       20.462425       1
       11061.977       74.627423       16.374367       1
       11074.230       79.371862       20.371120       1
       11086.483       75.586762       16.349544       1
       11098.736       97.740333       20.515504       1
       11110.988       63.077154       19.578087       1
       11123.241       72.222816       20.257554       1
       11135.494       79.729072       16.316945       1
       11147.746       64.386204       20.173184       1
       11159.999       61.383902       16.171068       1
       11172.252       78.877930       20.253760       1
       11184.505       64.853875       16.193259       1
       11196.757       68.052621       20.096188       1
       11209.010       70.483031       16.301051       0
       11221.263       68.760301       20.739770       0
       11233.515       59.587998       16.668186       0
       11245.768       83.752064       20.841940       0
       11258.021       65.105244       17.570920       0
       11270.274       77.671556       20.813855       0
       11282.526       80.470793       16.688001       0
       11294.779       58.144335       20.569987       0
       11307.032       67.923676       16.610715       0
       11319.285       80.663795       20.697838       0
       11331.537       56.463388       19.848495       0
       11343.790       71.249163       20.779238       0
       11356.043       59.399041       16.563784       0
       11368.295       64.223483       20.550374       0
       11380.548       49.307242       16.446541       0
       11392.801       62.863831       20.699239       0
       11405.054       52.874501       16.799747       0
       11417.306       55.290610       21.233637       0
       11429.559       52.484224       17.668485       0
       11441.812       65.207509       22.806360       0
       11454.065       62.566322       19.519818       0
       11466.317       60.548197       25.957925       0
       11478.570       60.945019       22.875236       0
       11490.823       33.824694       30.571181       0
       11503.075       81.354467       28.270997       0
       11515.328       41.709317       38.302792       0
       11527.581       77.579905       35.043117       0
       11539.834       33.943007       49.636825       0
       11552.086       68.739964       45.458178       0
       11564.339       89.533392       62.706840       0
       11576.592       49.997306       55.019259       0
       11588.844       53.798709       75.798799       0
       11601.097       89.101092       67.301630       0
       11613.350       75.909725       93.153719       0
       11625.603       90.982915       85.095714       0
       11637.855       28.922265       121.89993       0
       11650.108      -47.768313       115.51747       0
       11662.361      -37.620249       173.45267       0
       11674.614       105.07718       172.11060       0
       11686.866       175.70575       263.67126       0
       11699.119       136.20002       259.22377       0
       11711.372       79.665057       395.73798       0
       11723.624       5.6098659       390.79288       0
       11735.877       98.552783       574.63874       0
       11748.130      -78.623285       552.05335       0
       11760.383       424.96895       854.18455       0
       11772.635      -421.30128       923.22223       0
       11784.888       226.84536       1411.1587       0
       11797.141      -645.02428       1446.5712       0
       11809.393       1728.7548       2411.3167       0
       11821.646       510.93979       2439.4130       0
       11833.899      -2118.9680       3611.7262       0
       11846.152      -630.19347       3151.1671       0
       11858.404      -2585.4926       4019.3123       0
       11870.657      -1405.1506       3171.5689       0
       11882.910      -429.12887       3863.3414       0
       11895.163       361.86665       3034.3352       0
