#WAVELENGTH FLUX ERROR MASK
       10173.486       359.16145       3503.1057       0
       10195.944       18.804550       3148.1353       0
       10218.402      -911.39148       2888.3798       0
       10240.860      -1436.2600       2437.8106       0
       10263.318       121.69326       2198.9141       0
       10285.776       2504.3241       1876.8711       0
       10308.234       2313.7458       1696.2064       0
       10330.692       2583.1669       1482.9648       0
       10353.150       1516.9515       1374.1845       0
       10375.608       2326.2774       1218.9576       0
       10398.066       1999.0935       1137.6405       0
       10420.524       40.061843       904.12860       0
       10442.982       1315.7235       899.45401       0
       10465.440       771.26434       738.44213       0
       10487.898       946.65142       652.58643       0
       10510.356       10.830263       521.70699       0
       10532.814       57.198172       421.42925       0
       10555.272       213.41910       391.09445       0
       10577.730       17.750606       352.99899       0
       10600.188       35.187440       304.60001       0
       10622.646       151.20198       284.84531       0
       10645.104       3.8391932       246.73652       0
       10667.562       75.822794       229.40333       0
       10690.020       289.30892       195.71728       0
       10712.478       84.122998       171.47832       0
       10734.936       119.44209       140.05429       0
       10757.394       113.21960       33817158.       0
       10779.852       93.251829       98.010348       0
       10802.310       32.970081       84.831184       0
       10824.768       56.558024       71.516903       0
       10847.226       76.724552       65.067552       0
       10869.684       77.427154       57.265117       0
       10892.142       37.523535       53.664416       0
       10914.600       17.038818       47.828966       0
       10937.058       95.433222       47.363183       0
       10959.515       20.512631       42.248800       0
       10981.973       56.977356       41.074466       0
       11004.431       38.690440       36.990627       1
       11026.889       47.001927       35.707220       1
       11049.347       54.425678       32.583571       1
       11071.805       46.048886       31.553082       1
       11094.263       57.398904       29.352773       1
       11116.721       49.947645       28.935990       1
       11139.179       49.274740       27.179117       1
       11161.637       43.728132       27.307512       1
       11184.095       50.802130       26.160022       1
       11206.553       43.785535       26.486341       1
       11229.011       47.960295       25.512941       1
       11251.469       56.955403       26.073578       1
       11273.927       49.414314       25.029087       1
       11296.385       47.506550       25.496039       1
       11318.843       49.679495       24.464596       1
       11341.301       46.263829       25.008230       1
       11363.759       37.285216       23.835401       1
       11386.217       57.412691       24.551800       1
       11408.675       52.237305       24.716255       1
       11431.133       53.070508       24.177187       1
       11453.591       49.879419       23.282242       1
       11476.049       52.186820       23.826234       1
       11498.507       42.994143       20.975308       1
       11520.965       51.766675       23.596137       1
       11543.423       59.460065       23.084453       1
       11565.881       61.976728       23.611931       1
       11588.339       32.042608       22.492325       1
       11610.797       60.106740       23.291490       1
       11633.255       54.248401       22.290103       1
       11655.713       41.459947       22.386638       1
       11678.171       65.332938       22.002489       1
       11700.629       44.605631       22.243810       1
       11723.087       43.820206       21.258542       1
       11745.545       39.452725       21.724009       1
       11768.003       45.199344       20.728836       1
       11790.461       56.573260       21.481794       1
       11812.919       40.091689       16.549812       1
       11835.377       53.714950       21.010333       1
       11857.835       42.104857       16.043398       1
       11880.293       45.300434       20.565041       1
       11902.751       48.598210       19.792092       1
       11925.209       61.540271       20.530101       1
       11947.667       45.091746       19.568655       1
       11970.124       41.689073       19.927358       1
       11992.582       49.282311       19.268698       1
       12015.040       49.725614       19.704685       1
       12037.498       48.423196       19.003628       1
       12059.956       34.731194       19.049910       1
       12082.414       50.440758       18.687601       1
       12104.872       58.438183       19.308921       1
       12127.330       61.917948       18.678925       1
       12149.788       54.927440       19.183982       1
       12172.246       46.600757       18.215106       1
       12194.704       49.696661       18.892890       1
       12217.162       58.424385       18.051620       1
       12239.620       40.414896       18.531937       1
       12262.078       48.617535       17.880330       1
       12284.536       42.337717       18.319091       1
       12306.994       45.263065       17.666222       1
       12329.452       54.760888       18.317106       1
       12351.910       51.564588       17.626079       1
       12374.368       47.976243       18.111128       1
       12396.826       52.833078       17.482224       1
       12419.284       45.688627       17.863829       1
       12441.742       51.169372       17.316432       1
       12464.200       34.344729       16.161519       1
       12486.658       47.027981       17.072737       1
       12509.116       37.220094       16.042675       1
       12531.574       37.628456       16.915575       1
       12554.032       26.662021       14.268158       1
       12576.490       42.975573       16.844209       1
       12598.948       27.925821       14.223968       1
       12621.406       48.464577       16.822331       1
       12643.864       63.512920       16.131344       1
       12666.322       37.626255       16.621209       1
       12688.780       51.733927       17.223688       1
       12711.238       48.921041       16.634409       1
       12733.696       47.689157       16.971570       1
       12756.154       41.695231       16.290886       1
       12778.612       51.292147       16.673968       1
       12801.070       32.310056       14.596638       1
       12823.528       43.076882       16.567816       1
       12845.986       48.620861       16.052718       1
       12868.444       58.618704       16.603814       1
       12890.902       40.536821       15.871594       1
       12913.360       60.556838       16.568286       1
       12935.818       46.982425       15.715110       1
       12958.276       57.001311       16.270241       1
       12980.734       44.061137       14.243006       1
       13003.191       52.324516       14.732210       1
       13025.649       61.065547       15.537094       1
       13048.107       48.946569       15.769388       1
       13070.565       55.207190       15.403937       1
       13093.023       35.831226       15.593492       1
       13115.481       47.405630       15.182174       1
       13137.939       42.917072       15.509821       1
       13160.397       45.860632       14.985099       1
       13182.855       42.298467       15.338173       1
       13205.313       39.236586       13.621673       1
       13227.771       40.729464       15.058427       1
       13250.229       42.047521       14.627607       1
       13272.687       53.634367       15.094900       1
       13295.145       42.901147       14.493520       1
       13317.603       40.041370       13.669774       1
       13340.061       48.186218       4112757.8       1
       13362.519       58.375478       15.078089       1
       13384.977       48.387131       14.352813       1
       13407.435       54.731797       14.717378       1
       13429.893       54.268553       14.388901       1
       13452.351       42.122483       14.489962       1
       13474.809       53.125235       14.235310       1
       13497.267       32.089826       14.410006       1
       13519.725       46.137586       14.149561       1
       13542.183       48.958845       14.568964       1
       13564.641       44.674177       13.882874       1
       13587.099       41.703384       14.428368       1
       13609.557       53.065644       13.788174       1
       13632.015       43.507841       14.480101       1
       13654.473       29.458230       12.646026       1
       13676.931       42.275544       14.476391       1
       13699.389       46.924105       14.072395       1
       13721.847       50.532530       14.527653       1
       13744.305       45.963449       14.012601       1
       13766.763       48.699608       14.470378       1
       13789.221       37.549561       13.997244       1
       13811.679       37.169734       14.461614       1
       13834.137       30.098393       12.827468       1
       13856.595       54.550861       14.537857       1
       13879.053       26.541038       12.654426       1
       13901.511       45.129708       14.202669       1
       13923.969       55.558888       13.973100       1
       13946.427       50.441924       14.392047       1
       13968.885       54.981985       13.949412       1
       13991.343       49.797340       14.265909       1
       14013.801       50.181287       13.750247       1
       14036.258       56.797476       14.264748       1
       14058.716       37.178842       12.385270       1
       14081.174       32.844931       12.689006       1
       14103.632       45.255009       13.477681       1
       14126.090       48.096145       3792981.4       1
       14148.548       52.889368       13.482637       1
       14171.006       58.220039       13.975409       1
       14193.464       41.141132       13.358252       1
       14215.922       44.350428       13.806525       1
       14238.380       46.425030       13.292797       1
       14260.838       51.388677       13.737172       1
       14283.296       44.837330       13.193037       1
       14305.754       44.500188       13.558750       1
       14328.212       43.474305       13.097029       1
       14350.670       43.078515       13.421531       1
       14373.128       38.848478       12.965744       1
       14395.586       42.736972       13.395421       1
       14418.044       39.951489       12.993412       1
       14440.502       46.172175       13.405622       1
       14462.960       60.345669       13.197119       1
       14485.418       44.571495       13.409171       1
       14507.876       35.033430       11.961791       1
       14530.334       52.917597       13.460264       1
       14552.792       38.552425       12.987594       1
       14575.250       44.223252       13.391690       1
       14597.708       46.100385       13.022494       1
       14620.166       43.879407       13.451573       1
       14642.624       36.816976       12.961373       1
       14665.082       52.409207       13.428135       1
       14687.540       43.270394       13.046155       1
       14709.998       45.854561       13.398649       1
       14732.456       42.605296       12.996400       1
       14754.914       46.027892       13.414207       1
       14777.372       39.160791       12.964333       1
       14799.830       49.531158       13.488688       1
       14822.288       50.496202       13.037554       1
       14844.746       40.820403       13.332341       1
       14867.204       43.406709       12.942577       1
       14889.662       39.892693       13.191739       1
       14912.120       47.421782       12.841416       1
       14934.578       48.495119       13.164022       1
       14957.036       45.184208       12.732383       1
       14979.494       35.871582       12.876280       1
       15001.952       38.504634       12.635029       1
       15024.410       39.960178       12.921666       1
       15046.868       45.513122       12.712120       1
       15069.325       40.552275       12.976849       1
       15091.783       42.404782       12.622195       1
       15114.241       47.934228       13.051697       1
       15136.699       36.438722       12.383484       1
       15159.157       43.704301       3541803.6       1
       15181.615       37.539782       12.430600       1
       15204.073       34.866871       11.725328       1
       15226.531       43.603965       12.485155       1
       15248.989       49.106043       12.957425       1
       15271.447       45.704899       12.480852       1
       15293.905       42.231180       12.862261       1
       15316.363       45.355572       3528699.0       1
       15338.821       41.415698       12.909396       1
       15361.279       46.235098       12.519447       1
       15383.737       46.714392       13.029998       1
       15406.195       46.587930       12.596359       1
       15428.653       44.757820       13.010484       1
       15451.111       46.147090       12.647986       1
       15473.569       39.627928       13.059568       1
       15496.027       51.651705       12.785589       1
       15518.485       44.300836       13.163109       1
       15540.943       52.490298       12.801286       1
       15563.401       42.716398       13.041146       1
       15585.859       47.417391       12.637047       1
       15608.317       40.451362       12.973539       1
       15630.775       43.387699       12.564127       1
       15653.233       36.927985       12.891336       1
       15675.691       43.196778       12.520757       1
       15698.149       43.459756       12.892037       1
       15720.607       48.960140       12.486372       1
       15743.065       39.894794       12.766883       1
       15765.523       51.190228       3499585.0       1
       15787.981       46.382588       12.866685       1
       15810.439       38.819208       12.289905       1
       15832.897       48.367240       12.861463       1
       15855.355       44.339876       12.416648       1
       15877.813       40.435604       12.814870       1
       15900.271       40.037370       12.407250       1
       15922.729       40.503563       12.861108       1
       15945.187       39.567553       12.493634       1
       15967.645       45.533903       12.769406       1
       15990.103       48.311839       12.573176       1
       16012.561       47.687798       12.891767       1
       16035.019       45.698988       12.531622       1
       16057.477       55.051964       12.999383       1
       16079.935       39.499730       12.499090       1
       16102.392       39.539703       13.613860       1
       16124.850       46.879066       12.600092       1
       16147.308       38.926862       13.038622       1
       16169.766       38.188898       12.652538       1
       16192.224       43.681080       13.213000       1
       16214.682       44.654320       12.796442       1
       16237.140       47.237922       13.338063       1
       16259.598       45.448113       12.860306       1
       16282.056       51.465864       13.391549       1
       16304.514       51.992662       12.993751       1
       16326.972       34.488441       13.283942       1
       16349.430       45.981897       12.974092       1
       16371.888       25.902895       12.107279       1
       16394.346       39.996969       13.017417       1
       16416.804       40.617717       13.402483       1
       16439.262       38.199475       13.014575       1
       16461.720       52.189765       13.771343       1
       16484.178       39.787468       13.433034       1
       16506.636       37.022108       14.134864       1
       16529.094       37.832066       14.141087       1
       16551.552       40.536223       15.131125       1
       16574.010       45.133225       15.435238       1
       16596.468       45.050744       17.079048       1
       16618.926       47.785988       17.692024       1
       16641.384       47.809368       19.988521       1
       16663.842       61.282070       21.328417       1
       16686.300       40.670596       24.213630       1
       16708.758       54.833317       26.496245       1
       16731.216       34.931734       30.590891       1
       16753.674       59.633287       34.059378       0
       16776.132       44.288224       39.819359       0
       16798.590       45.398453       44.414423       0
       16821.048       46.726966       50.943424       0
       16843.506       55.234999       50.571521       0
       16865.964       109.23532       64.045010       0
       16888.422       88.260876       69.085007       0
       16910.880       50.491751       79.053010       0
       16933.338       87.565243       79.092120       0
       16955.796       43.751198       98.187645       0
       16978.254       36.712921       105.73520       0
       17000.712       37.675159       120.58735       0
       17023.170       72.672390       130.16218       0
       17045.628       131.02697       149.30839       0
       17068.086       78.266537       160.88945       0
       17090.544       60.395526       186.85936       0
       17113.002       39.794287       206.92286       0
       17135.459      -27.249666       244.63763       0
       17157.917      -52.511587       269.91462       0
