#WAVELENGTH FLUX ERROR MASK
       10219.338      -269.21124       2723.4108       0
       10242.212       333.38331       2290.0318       0
       10265.085      -1472.4122       2012.5533       0
       10287.959      -743.73808       1684.0432       0
       10310.832       452.00296       1532.5467       0
       10333.705      -259.89490       1421.1645       0
       10356.579       84.655190       1281.1816       0
       10379.452      -1821.3576       1157.0246       0
       10402.326       1618.2552       1083.4916       0
       10425.199       1309.7201       985.08199       0
       10448.072       1450.2003       865.13426       0
       10470.946       383.71964       731.28541       0
       10493.819       155.63406       611.66506       0
       10516.693       84.815714       518.98663       0
       10539.566       268.80155       446.87761       0
       10562.440       372.79204       387.33591       0
       10585.313       115.31018       339.03411       0
       10608.186      -2275.9317       0.0000000       0
       10631.060       323.12935       276.18216       0
       10653.933      -275.13308       243.15466       0
       10676.807      -68.075571       214.82503       0
       10699.680      -38.977620       187.93449       0
       10722.553       534.76819       164.38122       0
       10745.427       78.913740       133.08483       0
       10768.300       258.52259       121.61967       0
       10791.174      -92.343543       91.494756       0
       10814.047       31.652817       79.044586       0
       10836.920       162.90753       70.310005       0
       10859.794       68.754863       62.101838       0
       10882.667       202.24490       57.361367       0
       10905.541       192.99201       53.378575       0
       10928.414       134.06637       49.171340       0
       10951.287       159.36214       46.054041       0
       10974.161       139.23069       43.174965       0
       10997.034       180.38014       40.672141       0
       11019.908       69.608131       36.901490       1
       11042.781       162.47584       35.392705       1
       11065.655       187.75338       33.792409       1
       11088.528       124.76217       31.379226       1
       11111.401       166.83696       30.181780       1
       11134.275       201.67909       29.652374       1
       11157.148       167.47122       28.926530       1
       11180.022       148.40177       28.197681       1
       11202.895       178.39265       28.030765       1
       11225.768       182.58537       27.742933       1
       11248.642       77.162395       26.090648       1
       11271.515       157.94169       26.916675       1
       11294.389       124.88621       26.180332       1
       11317.262       176.30367       26.305115       1
       11340.135       132.69022       25.868361       1
       11363.009       168.57755       25.825307       1
       11385.882       136.17870       25.157118       1
       11408.756       153.54348       25.237331       1
       11431.629       131.50758       24.858395       1
       11454.503       176.76148       24.964991       1
       11477.376       119.93180       24.171046       1
       11500.249       169.84382       24.844764       1
       11523.123       131.12291       24.353748       1
       11545.996       106.06261       23.961155       1
       11568.870       105.87615       23.877942       1
       11591.743       154.97548       24.284455       1
       11614.616       142.28823       23.698779       1
       11637.490       169.03019       24.085891       1
       11660.363       148.03798       23.461729       1
       11683.237       132.73849       23.127314       1
       11706.110       161.92943       21.948520       1
       11728.983       144.52292       22.045108       1
       11751.857       126.57538       20.917970       1
       11774.730       157.83975       21.430943       1
       11797.604       135.49107       20.466816       1
       11820.477       161.58816       20.890352       1
       11843.350       152.10380       20.058906       1
       11866.224       160.38999       20.546845       1
       11889.097       147.98533       19.638301       1
       11911.971       141.02529       19.938000       1
       11934.844       163.99943       19.385210       1
       11957.718       147.11906       19.388193       1
       11980.591       171.80557       19.124342       1
       12003.464       161.97388       19.276546       1
       12026.338       162.41511       18.665307       1
       12049.211       158.53123       18.996583       1
       12072.085       164.85260       18.401976       1
       12094.958       150.48758       18.618858       1
       12117.831       133.17758       17.956870       1
       12140.705       131.96612       18.153173       1
       12163.578       147.79175       17.746665       1
       12186.452       159.30149       18.251008       1
       12209.325       167.79294       17.733555       1
       12232.198       138.49734       17.833019       1
       12255.072       133.72344       17.135532       1
       12277.945       142.44561       17.595132       1
       12300.819       160.19103       17.162964       1
       12323.692       130.74667       17.342458       1
       12346.566       141.76386       16.878034       1
       12369.439       133.00164       17.156276       1
       12392.312       150.05583       16.798970       1
       12415.186       126.42083       16.827362       1
       12438.059       140.53635       16.562331       1
       12460.933       138.19841       16.910597       1
       12483.806       148.77147       16.593091       1
       12506.679       136.11061       16.825080       1
       12529.553       157.46296       16.571253       1
       12552.426       128.11370       16.580014       1
       12575.300       156.61178       16.322785       1
       12598.173       130.68746       16.384902       1
       12621.046       154.14752       16.264249       1
       12643.920       139.10544       16.515493       1
       12666.793       147.90769       16.026894       1
       12689.667       157.97418       16.521502       1
       12712.540       139.27950       15.886566       1
       12735.413       133.18500       16.162578       1
       12758.287       154.43321       15.745044       1
       12781.160       138.65481       15.992038       1
       12804.034       149.27244       15.558192       1
       12826.907       148.14836       15.836891       1
       12849.781       178.26219       15.690393       1
       12872.654       126.16813       15.632200       1
       12895.527       132.70270       15.207401       1
       12918.401       127.31773       15.419981       1
       12941.274       147.26733       15.237285       1
       12964.148       141.64080       15.490101       1
       12987.021       141.58654       14.997390       1
       13009.894       148.48688       15.317376       1
       13032.768       171.02714       15.087401       1
       13055.641       147.96860       15.114535       1
       13078.515       154.57369       14.721150       1
       13101.388       126.43212       14.268495       1
       13124.261       153.79819       13.704435       1
       13147.135       138.63296       14.255848       1
       13170.008       153.65380       13.592802       1
       13192.882       142.60542       14.155441       1
       13215.755       131.17687       13.211180       1
       13238.629       121.36637       13.811166       1
       13261.502       132.10398       13.146484       1
       13284.375       155.40138       14.001465       1
       13307.249       137.68348       13.156703       1
       13330.122       134.49237       13.697394       1
       13352.996       158.39544       13.220944       1
       13375.869       120.87969       13.538287       1
       13398.742       136.26365       12.991084       1
       13421.616       128.84366       13.505873       1
       13444.489       148.88729       12.944230       1
       13467.363       123.72655       13.374290       1
       13490.236       109.06219       12.463514       1
       13513.109       122.76705       13.145219       1
       13535.983       150.26848       12.799358       1
       13558.856       111.64689       13.059081       1
       13581.730     -0.41183239       0.0000000       1
       13604.603       109.80456       12.777947       1
       13627.476       142.75749       12.620047       1
       13650.350       128.80641       13.132278       1
       13673.223       108.14487       12.405571       1
       13696.097       143.18742       13.251009       1
       13718.970       114.92389       12.451063       1
       13741.844       130.99223       13.358820       1
       13764.717       138.66781       12.528957       1
       13787.590       155.71213       13.535529       1
       13810.464       135.48743       12.624042       1
       13833.337       151.96464       13.335147       1
       13856.211       144.21329       12.584509       1
       13879.084       123.03639       13.163211       1
       13901.957       138.01413       12.386817       1
       13924.831       136.85787       13.338970       1
       13947.704       175.85320       12.952428       1
       13970.578       131.72341       13.095993       1
       13993.451       150.38038       12.328831       1
       14016.324       133.20921       12.960381       1
       14039.198       179.40177       12.725321       1
       14062.071       154.62934       13.085620       1
       14084.945       153.53809       12.375874       1
       14107.818       135.43900       12.899359       1
       14130.692       132.34916       11.932410       1
       14153.565       136.02972       12.745373       1
       14176.438       123.47343       11.845837       1
       14199.312       142.00018       12.810015       1
       14222.185       111.64807       11.556104       1
       14245.059       122.27116       12.492689       1
       14267.932       123.03449       11.732578       1
       14290.805       143.03388       12.577288       1
       14313.679       111.34851       11.449434       1
       14336.552       150.21328       12.576060       1
       14359.426       143.68197       11.741660       1
       14382.299       128.03432       12.368264       1
       14405.172       137.08669       11.609542       1
       14428.046       134.61418       12.219655       1
       14450.919       149.17987       11.786941       1
       14473.793       132.57187       12.731956       1
       14496.666       125.84465       12.387653       1
       14519.539       126.68961       12.613397       1
       14542.413       113.55789       12.239519       1
       14565.286       144.27459       12.818104       1
       14588.160       116.04813       12.285733       1
       14611.033       130.35018       12.774896       1
       14633.907       121.95193       12.335827       1
       14656.780       126.95816       12.686686       1
       14679.653       119.97186       12.288505       1
       14702.527       136.31584       12.811881       1
       14725.400       134.50025       12.511684       1
       14748.274       130.38852       12.724501       1
       14771.147       139.94849       12.575866       1
       14794.020       125.13245       12.624180       1
       14816.894       113.21248       12.272707       1
       14839.767       123.60053       12.582982       1
       14862.641       131.49313       12.404603       1
       14885.514       125.52272       12.576534       1
       14908.387       118.49255       12.146259       1
       14931.261       118.67294       12.458322       1
       14954.134       114.82371       12.054781       1
       14977.008       138.44472       12.599374       1
       14999.881       118.08452       12.031910       1
       15022.755       115.48418       12.294144       1
       15045.628       121.29677       11.926370       1
       15068.501       118.83622       12.317781       1
       15091.375       117.20638       12.004569       1
       15114.248       115.45866       12.266628       1
       15137.122       120.31348       11.953402       1
       15159.995       130.98178       12.427293       1
       15182.868       127.22868       12.062262       1
       15205.742       119.40453       12.215914       1
       15228.615       115.68143       11.835570       1
       15251.489       122.42561       12.445589       1
       15274.362       124.55391       11.846950       1
       15297.235       107.78191       11.961497       1
       15320.109       97.757028       12.088623       1
       15342.982       122.83194       12.174073       1
       15365.856       129.52103       11.986787       1
       15388.729       132.71304       12.405303       1
       15411.602       120.89576       11.912747       1
       15434.476       129.33173       12.324633       1
       15457.349       123.22690       11.990937       1
       15480.223       120.68854       12.343020       1
       15503.096       130.36596       12.030279       1
       15525.970       110.60003       12.187111       1
       15548.843       127.52441       12.001027       1
       15571.716       118.51714       12.177940       1
       15594.590       103.51862       11.842706       1
       15617.463       120.19683       12.257736       1
       15640.337       130.00448       12.096092       1
       15663.210       136.67418       12.450590       1
       15686.083       123.06377       11.857416       1
       15708.957       117.44710       12.332598       1
       15731.830       114.94143       11.841575       1
       15754.704       115.05220       12.073709       1
       15777.577       131.77118       11.923731       1
       15800.450       124.15311       12.215463       1
       15823.324       133.62999       11.955097       1
       15846.197       119.08424       12.136070       1
       15869.071       126.76041       12.670475       1
       15891.944       129.40626       12.577342       1
       15914.818       105.43748       12.558932       1
       15937.691       129.72373       12.557255       1
       15960.564       130.00317       12.674063       1
       15983.438       127.59663       12.701090       1
       16006.311       123.02608       12.669549       1
       16029.185       145.63258       12.942252       1
       16052.058       118.65919       12.738682       1
       16074.931       107.87087       12.628575       1
       16097.805       131.26742       12.877394       1
       16120.678       129.32625       12.776577       1
       16143.552       118.16955       12.676046       1
       16166.425       101.95145       12.698916       1
       16189.298       123.02052       12.768267       1
       16212.172       120.90061       12.974695       1
       16235.045       118.09210       12.996563       1
       16257.919       123.14780       12.984858       1
       16280.792       118.04020       12.897656       1
       16303.665       101.26830       12.864130       1
       16326.539       97.834532       12.758458       1
       16349.412       122.92048       13.258251       1
       16372.286       117.11382       12.895688       1
       16395.159       120.74409       13.199582       1
       16418.033       100.96962       12.968198       1
       16440.906       110.51296       13.178779       1
       16463.779       138.11630       13.433503       1
       16486.653       108.30645       13.177032       1
       16509.526       140.33399       13.683048       1
       16532.400       99.861192       13.555446       1
       16555.273       115.85087       13.986414       1
       16578.146       139.60625       14.583134       1
       16601.020       99.176822       14.867671       1
       16623.893       102.49111       15.698532       1
       16646.767       122.24549       17.005259       1
       16669.640       118.03395       18.205087       1
       16692.513       125.80520       19.784566       1
       16715.387       129.48208       21.719584       1
       16738.260       118.63944       24.258836       1
       16761.134       137.40353       27.302227       0
       16784.007       149.65296       30.711093       0
       16806.881       88.744364       34.053471       0
       16829.754       127.23225       39.346071       0
       16852.627       7.4600785       43.325166       0
       16875.501       103.95299       49.578455       0
       16898.374       38.370618       55.043514       0
       16921.248       158.43793       62.783718       0
       16944.121       225.50065       70.115822       0
       16966.994       119.23341       76.898961       0
       16989.868      -6.9759072       84.364069       0
       17012.741      -9.4484821       93.990909       0
       17035.615      -56.970845       104.81549       0
       17058.488       163.53414       118.51532       0
       17081.361       69.467459       130.01765       0
       17104.235       114.70209       144.35270       0
       17127.108       74.926085       161.21042       0
       17149.982       219.59473       184.27313       0
       17172.855      -76.112302       207.04975       0
       17195.728       27.790714       239.62677       0
       17218.602      -537.02498       270.50630       0
       17241.475       80.425485       295.43020       0
       17264.349       416.95529       345.65722       0
       17287.222       97.080769       372.28861       0
       17310.096       409.01045       428.74433       0
       17332.969       774.49658       465.21667       0
