#WAVELENGTH FLUX ERROR MASK
       10219.338      -930.14511       2728.0747       0
       10242.212      -1563.1633       2643.7598       0
       10265.085       724.54007       2046.1971       0
       10287.959      -87.748697       1697.3976       0
       10310.832      -1326.3952       1523.4860       0
       10333.705      -581.29193       1346.8805       0
       10356.579       180.62215       1255.1938       0
       10379.452       848.11517       1132.0507       0
       10402.326       102.10266       1049.0841       0
       10425.199       36.622677       926.51613       0
       10448.072      -443.54182       821.60809       0
       10470.946      -164.18836       690.44715       0
       10493.819      -665.15905       585.12380       0
       10516.693      -466.28981       487.37404       0
       10539.566       55.951459       432.33853       0
       10562.440      -167.00181       363.48924       0
       10585.313      -261.44316       328.27596       0
       10608.186      -19.993222       289.59587       0
       10631.060      -78.017177       265.46684       0
       10653.933      -24.926053       233.50894       0
       10676.807       37.002377       212.00338       0
       10699.680       90.219963       179.88897       0
       10722.553       127.28404       156.17961       0
       10745.427      -178.96955       112.29445       0
       10768.300       7.2113102       109.99005       0
       10791.174       82.305755       88.576603       0
       10814.047       114.04587       25952211.       0
       10836.920       100.14804       66.641661       0
       10859.794       126.91832       61.035793       0
       10882.667       84.359293       53.709265       0
       10905.541       113.95903       51.181921       0
       10928.414       141.94957       46.876391       0
       10951.287       99.147429       44.393367       0
       10974.161       89.284735       40.605113       0
       10997.034       77.229488       38.906080       0
       11019.908       96.607158       35.431435       1
       11042.781       96.324035       34.064869       1
       11065.655       111.30333       31.483328       1
       11088.528       109.26930       30.520407       1
       11111.401       80.834626       28.198374       1
       11134.275       130.24304       28.539684       1
       11157.148       84.230785       26.561330       1
       11180.022       122.65003       27.254345       1
       11202.895       82.879909       25.779008       1
       11225.768       99.614086       26.216159       1
       11248.642       78.211277       25.117271       1
       11271.515       87.735075       25.579346       1
       11294.389       91.439441       24.570102       1
       11317.262       122.20501       25.436102       1
       11340.135       116.23196       24.327262       1
       11363.009       110.20514       24.716948       1
       11385.882       89.547776       23.567321       1
       11408.756       103.82307       24.658204       1
       11431.629       111.02969       23.368864       1
       11454.503       155.67501       24.354918       1
       11477.376       18.693821       20.209211       1
       11500.249       100.81559       23.535488       1
       11523.123       105.70084       22.865059       1
       11545.996       101.79867       23.422352       1
       11568.870       122.84264       22.659097       1
       11591.743       102.93103       23.154726       1
       11614.616       116.37422       22.458203       1
       11637.490       34.562321       19.282526       1
       11660.363       106.34349       21.913110       1
       11683.237       118.88610       22.277477       1
       11706.110       130.24791       21.610013       1
       11728.983       139.47954       21.878569       1
       11751.857       111.42360       20.802570       1
       11774.730       134.00471       21.349358       1
       11797.604       84.955514       20.127525       1
       11820.477       119.27351       20.636794       1
       11843.350       98.659837       19.701608       1
       11866.224       113.37337       20.082588       1
       11889.097       125.89513       19.480158       1
       11911.971       111.13201       19.641755       1
       11934.844       113.82050       18.997257       1
       11957.718       130.34992       19.242294       1
       11980.591       121.15998       18.645348       1
       12003.464       127.99436       19.096773       1
       12026.338       115.49261       18.289960       1
       12049.211       132.65076       18.858462       1
       12072.085       101.12556       17.753987       1
       12094.958       117.86673       18.278404       1
       12117.831       120.70307       17.781651       1
       12140.705       103.17686       17.891183       1
       12163.578       123.65075       17.608133       1
       12186.452       122.78466       17.914982       1
       12209.325       142.69042       17.566848       1
       12232.198       124.06011       17.676204       1
       12255.072       117.55083       17.026389       1
       12277.945       128.35474       17.519055       1
       12300.819       103.41444       16.651971       1
       12323.692       106.62222       17.100719       1
       12346.566       114.99201       16.685472       1
       12369.439       119.43983       17.029672       1
       12392.312       121.58257       16.532582       1
       12415.186       121.99282       16.944851       1
       12438.059       86.277165       15.979188       1
       12460.933       103.43549       16.621224       1
       12483.806       102.52242       16.044348       1
       12506.679       131.57016       16.643696       1
       12529.553       116.53189       16.116811       1
       12552.426       138.39699       16.704482       1
       12575.300       124.13282       16.125785       1
       12598.173       122.26577       16.402792       1
       12621.046       114.78153       15.878682       1
       12643.920       126.84942       16.371097       1
       12666.793       92.756879       15.596406       1
       12689.667       115.08844       16.182263       1
       12712.540       123.78335       15.742739       1
       12735.413       128.41176       16.028919       1
       12758.287       126.78782       15.471741       1
       12781.160       102.65187       15.577434       1
       12804.034       110.35162       15.175845       1
       12826.907       117.59085       15.625402       1
       12849.781       109.40046       15.022053       1
       12872.654       131.57029       15.532709       1
       12895.527       118.23996       15.079663       1
       12918.401       57.478207       10.499177       1
       12941.274       128.89066       15.016623       1
       12964.148       198.26782       16.102642       1
       12987.021       106.52328       14.553189       1
       13009.894       109.59622       15.021242       1
       13032.768       119.25154       14.631267       1
       13055.641       123.73405       14.837993       1
       13078.515       113.11801       14.962284       1
       13101.388       125.01408       14.762676       1
       13124.261       100.81882       14.188514       1
       13147.135       101.49241       14.463354       1
       13170.008       118.40211       14.246884       1
       13192.882       107.72834       14.354840       1
       13215.755       120.18395       13.952110       1
       13238.629       110.29203       14.222100       1
       13261.502       114.01690       13.930412       1
       13284.375       101.54679       14.004453       1
       13307.249       103.36875       13.634443       1
       13330.122       109.76247       4802866.2       1
       13352.996       101.13723       13.576369       1
       13375.869       108.86880       13.970709       1
       13398.742       105.77347       13.533747       1
       13421.616       103.15957       13.780948       1
       13444.489       112.14643       13.464600       1
       13467.363       100.96076       13.608865       1
       13490.236       103.92950       13.321859       1
       13513.109       109.61220       13.620066       1
       13535.983       97.349210       13.106335       1
       13558.856       95.152106       13.383294       1
       13581.730       105.28692       13.124750       1
       13604.603       113.31994       13.546850       1
       13627.476       104.81377       13.108885       1
       13650.350       88.111645       11.856164       1
       13673.223       106.23692       4621948.6       1
       13696.097       103.91005       13.469164       1
       13718.970       111.26538       13.166239       1
       13741.844       113.59879       13.570103       1
       13764.717       101.70454       13.153739       1
       13787.590       81.973949       13.298011       1
       13810.464       100.44088       13.062917       1
       13833.337       111.76282       13.523856       1
       13856.211       103.07120       13.131344       1
       13879.084       110.12339       13.482797       1
       13901.957       108.85024       13.076191       1
       13924.831       109.03442       15.116018       1
       13947.704       108.40141       13.176250       1
       13970.578       127.53317       14.377665       1
       13993.451       113.06085       13.172769       1
       14016.324       112.98432       13.253735       1
       14039.198       126.07334       13.131741       1
       14062.071       115.69764       13.100714       1
       14084.945       110.51818       12.914632       1
       14107.818       101.33757       12.907284       1
       14130.692       105.31170       12.561084       1
       14153.565       111.59777       12.990317       1
       14176.438       105.57279       12.551503       1
       14199.312       102.96628       12.759596       1
       14222.185       105.02308       12.417364       1
       14245.059       96.571719       12.640471       1
       14267.932       113.65186       12.495345       1
       14290.805       98.405302       12.671140       1
       14313.679       96.163716       12.273309       1
       14336.552       105.35209       4303376.3       1
       14359.426       106.93028       12.296945       1
       14382.299       103.53465       12.563962       1
       14405.172       106.30599       12.218909       1
       14428.046       103.31671       12.497470       1
       14450.919       119.97591       12.378499       1
       14473.793       104.47883       12.506686       1
       14496.666       112.99425       12.338013       1
       14519.539       110.57284       12.600804       1
       14542.413       59.529872       9.2481318       1
       14565.286       79.520464       12.315055       1
       14588.160       111.98122       12.247825       1
       14611.033       102.20741       12.495659       1
       14633.907       100.13535       12.115590       1
       14656.780       98.759716       12.410311       1
       14679.653       45.696388       9.0557537       1
       14702.527       108.17929       12.532098       1
       14725.400       97.942698       12.133966       1
       14748.274       95.854180       12.431530       1
       14771.147       91.927771       12.092892       1
       14794.020       107.89935       12.596340       1
       14816.894       96.116357       12.079377       1
       14839.767       95.237682       12.472940       1
       14862.641       92.854152       12.024129       1
       14885.514       90.005914       12.317238       1
       14908.387       94.078759       11.955206       1
       14931.261       89.989964       12.631850       1
       14954.134       103.26489       11.859280       1
       14977.008       105.91342       12.304607       1
       14999.881       90.576457       11.726844       1
       15022.755       85.009475       12.018106       1
       15045.628       96.777618       11.764316       1
       15068.501       103.46944       12.135686       1
       15091.375       87.950020       11.756992       1
       15114.248       88.158091       11.964301       1
       15137.122       107.83235       11.908986       1
       15159.995       92.291730       12.012053       1
       15182.868       96.348417       11.712341       1
       15205.742       88.345213       11.951950       1
       15228.615       101.93158       11.748557       1
       15251.489       105.29875       12.253176       1
       15274.362       93.945889       11.468023       1
       15297.235       92.710599       11.851704       1
       15320.109       107.64421       11.752679       1
       15342.982       105.31843       12.042922       1
       15365.856       104.56963       11.719184       1
       15388.729       103.89048       12.049843       1
       15411.602       100.12773       11.935005       1
       15434.476       92.454819       11.940922       1
       15457.349       101.43707       11.866538       1
       15480.223       97.587549       12.071781       1
       15503.096       103.69167       11.745283       1
       15525.970       116.28620       12.244242       1
       15548.843       97.446062       11.704069       1
       15571.716       105.69235       12.059213       1
       15594.590       101.32401       11.851331       1
       15617.463       90.274191       12.020700       1
       15640.337       92.368851       11.681026       1
       15663.210       87.577480       11.996940       1
       15686.083       53.526199       7.7165370       1
       15708.957       93.163055       12.079524       1
       15731.830       52.724325       8.8777926       1
       15754.704       111.38199       12.075304       1
       15777.577       111.21558       11.820418       1
       15800.450       90.745199       11.937356       1
       15823.324       101.88684       11.669875       1
       15846.197       109.94673       12.036416       1
       15869.071       89.290292       11.618765       1
       15891.944       93.759323       12.002658       1
       15914.818       102.18128       11.698862       1
       15937.691       69.051414       10.471906       1
       15960.564       89.002399       11.578206       1
       15983.438       94.671293       12.069266       1
       16006.311       87.675945       11.631516       1
       16029.185       102.83740       12.160710       1
       16052.058       101.19376       11.738101       1
       16074.931       91.518247       13.485242       1
       16097.805       85.805229       11.588096       1
       16120.678       95.402383       12.101375       1
       16143.552       93.762245       11.640386       1
       16166.425       88.421620       12.098807       1
       16189.298       109.67937       12.033249       1
       16212.172       98.383473       12.330911       1
       16235.045       97.525676       11.924567       1
       16257.919       97.681345       12.437708       1
       16280.792       94.709010       11.936766       1
       16303.665       97.351334       12.443206       1
       16326.539       97.593542       12.056465       1
       16349.412       97.260274       12.493637       1
       16372.286       91.246027       12.053402       1
       16395.159       95.589952       12.593284       1
       16418.033       94.063877       12.203265       1
       16440.906       101.41528       12.614956       1
       16463.779       93.243787       12.259913       1
       16486.653       105.55175       13.632103       1
       16509.526       97.152204       12.499225       1
       16532.400       91.465520       13.092886       1
       16555.273       102.56066       13.059628       1
       16578.146       89.806935       13.824303       1
       16601.020       104.49321       14.014139       1
       16623.893       91.208998       15.103062       1
       16646.767       89.400275       15.685430       1
       16669.640       94.667876       17.247602       1
       16692.513       93.493101       18.448395       1
       16715.387       93.091909       20.688177       1
       16738.260       105.39003       22.607319       1
       16761.134       93.174124       25.906836       0
       16784.007       95.913616       28.430972       0
       16806.881       104.69081       33.064123       0
       16829.754       92.168890       36.692692       0
       16852.627       71.037674       43.082478       0
       16875.501       79.002967       46.496180       0
       16898.374       86.230305       48.718378       0
       16921.248       122.60774       58.745663       0
       16944.121       109.96427       66.910292       0
       16966.994       203.72984       73.289754       0
       16989.868       119.25843       83.245127       0
       17012.741       81.734547       89.674761       0
       17035.615       68.394253       88.033171       0
       17058.488       121.08178       109.85040       0
       17081.361       122.57651       125.69075       0
       17104.235       141.70731       136.77551       0
       17127.108       163.49295       157.10395       0
       17149.982       78.286550       171.46852       0
       17172.855       83.495107       202.84867       0
       17195.728       164.75702       226.50209       0
       17218.602       13.426789       267.76406       0
       17241.475      -325.26121       293.14606       0
       17264.349       496.81431       347.81551       0
       17287.222      -407.24867       367.59701       0
       17310.096      -318.06471       419.42044       0
       17332.969      -80.559763       457.46710       0
