#WAVELENGTH FLUX ERROR MASK
       10195.874       613.49365       3459.9213       0
       10218.872      -530.21027       2709.5704       0
       10241.871       387.75556       2634.7817       0
       10264.869      -18.634218       2006.2006       0
       10287.868      -153.98382       1660.2876       0
       10310.866       258.29999       1520.8947       0
       10333.865      -574.19281       1396.5006       0
       10356.863      -160.87081       1222.3244       0
       10379.862      -395.61952       1161.6090       0
       10402.860      -166.32699       1020.0477       0
       10425.859       692.15775       965.68471       0
       10448.857      -73.597405       802.42207       0
       10471.856      -175.92783       656.33567       0
       10494.854       64.465169       571.69416       0
       10517.853       98.516159       505.95688       0
       10540.851       62.134800       417.83418       0
       10563.850      -189.31598       373.79447       0
       10586.848       57.979345       323.06476       0
       10609.847       79.944405       299.82827       0
       10632.845       52.065229       242.70115       0
       10655.844       38.430113       242.03420       0
       10678.842       207.77288       206.93512       0
       10701.841      -17.394744       182.53335       0
       10724.839       64.478963       149.81269       0
       10747.838      -7.5224758       128.01494       0
       10770.836       58.452316       104.15564       0
       10793.835       24.209880       90.364424       0
       10816.833       15.352382       74.748257       0
       10839.832       51.662214       67.235567       0
       10862.830       21.026086       58.060586       0
       10885.829       44.169819       55.182001       0
       10908.827       50.459196       49.009345       0
       10931.826       63.250135       47.472111       0
       10954.824       52.827637       42.698840       0
       10977.823       57.313102       41.538684       0
       11000.821       26.289126       36.962562       1
       11023.820       48.286929       35.838727       1
       11046.818       52.721611       30.792042       1
       11069.817       35.515684       31.580327       1
       11092.815       32.406672       27.092991       1
       11115.814       57.720557       29.050096       1
       11138.812       60.668348       27.223859       1
       11161.811       46.258346       28.486388       1
       11184.809       29.911068       25.840524       1
       11207.808       33.753971       26.430687       1
       11230.806       49.959383       25.346565       1
       11253.805       51.392893       25.882881       1
       11276.803       63.127239       25.007443       1
       11299.802       47.140843       26.218561       1
       11322.800       25.801706       24.160212       1
       11345.799       39.014523       24.826924       1
       11368.797       44.923926       23.889814       1
       11391.796       28.843914       22.698505       1
       11414.794       46.087339       23.311761       1
       11437.793       43.541257       23.948322       1
       11460.791       32.134842       21.435227       1
       11483.790       46.206743       23.598611       1
       11506.788       48.578322       22.950201       1
       11529.787       34.962660       23.683386       1
       11552.785       39.397487       22.570663       1
       11575.784       46.821879       23.518394       1
       11598.782       44.466741       22.440204       1
       11621.781       56.286269       23.072688       1
       11644.779       44.399904       22.049008       1
       11667.777       40.716694       21.145420       1
       11690.776       48.902229       21.667250       1
       11713.774       43.668444       21.934138       1
       11736.773       50.143468       21.119380       1
       11759.771       43.752150       21.468040       1
       11782.770       44.324184       20.674960       1
       11805.768       45.442991       21.136554       1
       11828.767       46.709189       20.306990       1
       11851.765       45.952089       20.720138       1
       11874.764       42.313328       19.716465       1
       11897.762       52.661064       20.448124       1
       11920.761       31.223337       19.452697       1
       11943.759       38.373845       20.054724       1
       11966.758       42.189513       19.252960       1
       11989.756       32.840292       19.685373       1
       12012.755       38.830503       18.871462       1
       12035.753       61.170165       19.709965       1
       12058.752       39.153433       18.678539       1
       12081.750       32.866699       19.148712       1
       12104.749       37.692495       18.395400       1
       12127.747       35.053628       18.987045       1
       12150.746       27.768508       16.804188       1
       12173.744       46.024694       18.791199       1
       12196.743       46.833823       18.131937       1
       12219.741       28.398048       17.188633       1
       12242.740       25.076407       17.662919       1
       12265.738       43.977730       18.374018       1
       12288.737       31.311281       17.584004       1
       12311.735       41.454996       16.888256       1
       12334.734       30.868150       17.317133       1
       12357.732       52.993669       18.180761       1
       12380.731       24.477172       4503716.7       1
       12403.729       36.759489       17.823150       1
       12426.728       44.462862       17.106879       1
       12449.726       39.809272       17.639902       1
       12472.725       38.901489       16.914066       1
       12495.723       38.459001       17.442441       1
       12518.722       49.500051       17.107004       1
       12541.720       27.832918       17.257561       1
       12564.719       42.974019       16.931868       1
       12587.717       33.093791       17.189248       1
       12610.716       50.087554       16.888991       1
       12633.714       48.678064       17.276606       1
       12656.713       50.348376       16.741762       1
       12679.711       39.339790       17.066116       1
       12702.710       46.051519       16.591367       1
       12725.708       47.331175       16.881804       1
       12748.707       31.591785       16.122849       1
       12771.705       41.271852       16.590816       1
       12794.704       31.316175       15.947446       1
       12817.702       39.794465       16.825594       1
       12840.701       38.475602       15.844761       1
       12863.699       47.644178       16.901226       1
       12886.698       37.157943       15.794393       1
       12909.696       44.292995       16.220662       1
       12932.695       33.880100       15.655088       1
       12955.693       45.111699       16.073377       1
       12978.692       44.837961       15.561021       1
       13001.690       27.593086       15.650640       1
       13024.689       41.966927       15.342326       1
       13047.687       32.193090       15.480516       1
       13070.686       39.777420       16.372792       1
       13093.684       39.112469       15.571010       1
       13116.683       38.034261       14.641472       1
       13139.681       48.197825       15.483615       1
       13162.680       40.575349       14.804322       1
       13185.678       39.069214       15.193263       1
       13208.677       42.737820       14.665430       1
       13231.675       35.729138       14.086986       1
       13254.674       32.074079       14.504113       1
       13277.672       42.192548       15.008716       1
       13300.671       38.089154       14.458238       1
       13323.669       54.704854       15.222310       1
       13346.668       39.361596       14.388863       1
       13369.666       57.235967       14.801743       1
       13392.665       42.464043       14.337184       1
       13415.663       34.155088       12.699235       1
       13438.662       45.207277       14.243948       1
       13461.660       31.957080       12.572242       1
       13484.659       46.745484       14.098909       1
       13507.657       42.245496       3380518.9       1
       13530.656       45.660200       13.873418       1
       13553.654       37.119107       14.361907       1
       13576.653       48.345618       13.970264       1
       13599.651       51.695515       14.544471       1
       13622.650       33.351860       12.939418       1
       13645.648       37.254464       14.302082       1
       13668.647       40.097231       3361270.8       1
       13691.645       51.700037       14.481844       1
       13714.644       42.183411       13.990735       1
       13737.642       44.516016       14.427479       1
       13760.641       44.218072       14.025969       1
       13783.639       44.608160       14.436722       1
       13806.638       46.004214       14.002766       1
       13829.636       38.403304       14.292122       1
       13852.635       47.790813       13.984811       1
       13875.633       43.461696       14.353669       1
       13898.632       46.156749       13.908806       1
       13921.630       37.442098       14.231395       1
       13944.629       37.985682       13.794589       1
       13967.627       38.700525       14.135340       1
       13990.626       34.266168       13.617581       1
       14013.624       44.560643       14.096538       1
       14036.623       41.859983       13.583131       1
       14059.621       44.418692       14.001027       1
       14082.620       45.355092       13.457829       1
       14105.618       48.043941       13.915255       1
       14128.617       37.535168       13.335551       1
       14151.615       45.653923       13.788144       1
       14174.614       39.663613       13.296440       1
       14197.612       46.551535       12.930010       1
       14220.611       44.048256       13.273730       1
       14243.609       44.589656       13.646854       1
       14266.608       44.603119       13.210313       1
       14289.606       45.147198       13.504401       1
       14312.605       46.588195       13.079480       1
       14335.603       49.233383       13.473716       1
       14358.602       40.671619       12.938146       1
       14381.600       38.044791       12.489807       1
       14404.599       38.415093       12.950507       1
       14427.597       51.836548       13.522274       1
       14450.596       39.831949       12.943485       1
       14473.594       44.491013       13.384458       1
       14496.593       40.212148       12.984045       1
       14519.591       44.022813       13.372275       1
       14542.590       39.679258       13.021534       1
       14565.588       34.569622       13.263468       1
       14588.587       46.507622       13.113972       1
       14611.585       28.089932       12.295695       1
       14634.584       43.170081       13.032276       1
       14657.582       45.542871       13.411145       1
       14680.581       29.819750       12.991110       1
       14703.579       28.036996       11.336695       1
       14726.578       35.856033       13.039285       1
       14749.576       39.442797       13.402132       1
       14772.575       34.969924       13.054815       1
       14795.573       37.154099       13.354844       1
       14818.572       33.692656       12.979350       1
       14841.570       42.582759       13.301651       1
       14864.569       35.423547       12.967595       1
       14887.567       38.621931       13.282423       1
       14910.566       41.096210       12.942362       1
       14933.564       38.682295       13.170387       1
       14956.563       45.798833       12.852755       1
       14979.561       42.923470       13.119589       1
       15002.560       34.732290       12.609359       1
       15025.558       35.352953       12.982694       1
       15048.557       41.270431       12.807701       1
       15071.555       37.351800       13.142052       1
       15094.554       37.261611       12.698007       1
       15117.552       39.898069       13.103876       1
       15140.551       36.691367       12.619604       1
       15163.549       36.281735       13.018956       1
       15186.548       36.964183       12.527774       1
       15209.546       36.574559       13.052414       1
       15232.545       36.294441       12.619895       1
       15255.543       25.000222       12.981148       1
       15278.542       34.457660       12.618656       1
       15301.540       29.304867       13.057593       1
       15324.539       38.588110       12.710676       1
       15347.537       40.495737       13.233940       1
       15370.536       43.628998       12.825248       1
       15393.534       31.791747       13.107337       1
       15416.533       39.313392       12.831394       1
       15439.531       32.365371       13.254067       1
       15462.530       37.245600       3215291.3       1
       15485.528       40.767787       13.388865       1
       15508.527       42.267365       12.908861       1
       15531.525       43.227846       13.562696       1
       15554.524       36.222372       12.909313       1
       15577.522       37.015263       13.501821       1
       15600.521       35.104999       13.001894       1
       15623.519       25.329681       13.431618       1
       15646.518       33.210279       13.068139       1
       15669.516       14.777119       12.460730       1
       15692.515       32.371015       13.074529       1
       15715.513       26.148844       13.465383       1
       15738.512       35.225360       13.147209       1
       15761.510       33.698163       13.550981       1
       15784.509       32.334955       13.106936       1
       15807.507       32.403390       13.552946       1
       15830.506       28.124749       13.119507       1
       15853.504       24.670504       13.502060       1
       15876.503       40.277489       13.357952       1
       15899.501       21.625831       12.845153       1
       15922.500       30.061632       13.329201       1
       15945.498       25.281961       13.663059       1
       15968.497       20.370303       13.308067       1
       15991.495       25.381514       13.796512       1
       16014.494       27.801072       13.370428       1
       16037.492       28.038880       13.824786       1
       16060.491       22.948211       13.372064       1
       16083.489       23.757882       13.837343       1
       16106.488       39.660603       13.580044       1
       16129.486       30.671953       13.823515       1
       16152.485       19.308139       13.528403       1
       16175.483       34.925475       14.211450       1
       16198.482       25.062656       13.724738       1
       16221.480       31.706438       14.341811       1
       16244.479       35.793894       13.937970       1
       16267.477       25.292067       14.408557       1
       16290.476       28.584175       13.832901       1
       16313.474       11.019580       13.565211       1
       16336.473       27.966001       14.066140       1
       16359.471       25.438599       14.476150       1
       16382.470       25.352228       14.162856       1
       16405.468     -0.42265717       13.584833       1
       16428.467       34.079736       14.299207       1
       16451.465       10.125735       13.856890       1
       16474.464       25.545700       14.469254       1
       16497.462       33.446383       15.160607       1
       16520.461       31.062089       15.091915       1
       16543.459       7.1291184       14.992112       1
       16566.458       36.810999       16.346943       1
       16589.456       33.472053       17.618702       1
       16612.455       25.555094       18.281579       1
       16635.453       15.921833       20.245304       1
       16658.452       39.662807       21.562633       1
       16681.450       34.034169       24.400632       1
       16704.449       33.720352       26.575153       1
       16727.447       24.488007       30.915786       1
       16750.446       30.863568       34.048492       0
       16773.444       20.702097       39.875400       0
       16796.443       36.671646       44.554951       0
       16819.441       51.508826       52.402704       0
       16842.440       40.127740       56.968493       0
       16865.438       15.078905       65.589731       0
       16888.437       86.657531       71.814920       0
       16911.435       42.881225       82.251516       0
       16934.434       54.101143       89.406844       0
       16957.432       9.3186351       102.26391       0
       16980.431       49.979669       111.81587       0
       17003.429       29.102244       128.44155       0
       17026.428       33.148647       138.24422       0
       17049.426      -2.2984223       158.33996       0
       17072.425       99.355308       171.37969       0
       17095.423      -37.612103       198.05303       0
       17118.422       63.378887       218.40095       0
       17141.420      -98.564064       259.04882       0
       17164.419       131.89724       290.38894       0
       17187.417       82.564220       344.63645       0
       17210.416       58.706902       379.43919       0
       17233.414      -11.600051       440.48758       0
       17256.413      -212.30642       477.83858       0
       17279.411      -351.14417       542.37253       0
       17302.410      -49.077282       583.44710       0
       17325.408       137.78284       666.48202       0
       17348.407       45.095308       720.95781       0
