#WAVELENGTH FLUX ERROR MASK
       7499.7019      -8318.9485       22479.224       0
       7511.8524      -634.82854       15015.653       0
       7524.0029       3873.5103       16058.721       0
       7536.1535      -1030.9434       10877.364       0
       7548.3040       5493.5705       10980.468       0
       7560.4545      -1352.6345       6891.7173       0
       7572.6050       544.13922       7715.0456       0
       7584.7556       1450.5712       4399.1951       0
       7596.9061       1503.6422       5066.5715       0
       7609.0566       777.72485       3034.3539       0
       7621.2071      -274.76335       3229.4083       0
       7633.3577       298.41297       2224.3108       0
       7645.5082      -274.12176       2180.9849       0
       7657.6587       657.61886       1645.9585       0
       7669.8092       386.07458       1735.0642       0
       7681.9598       240.57128       1148.0034       0
       7694.1103      -173.28948       1201.9580       0
       7706.2608       73.191855       841.75726       0
       7718.4113      -90.188508       872.90435       0
       7730.5619       18.975753       625.51327       0
       7742.7124       64.341966       705.47999       0
       7754.8629       172.02294       610.67568       0
       7767.0134       247.77809       596.80713       0
       7779.1640       41.192519       441.45020       0
       7791.3145      -196.45508       500.88645       0
       7803.4650       137.23905       364.55987       0
       7815.6155       119.46825       414.46967       0
       7827.7661      -24.679306       294.70513       0
       7839.9166       52.793104       331.81845       0
       7852.0671       99.858808       239.35265       0
       7864.2176       198.93497       85730006.       0
       7876.3682      -164.05089       197.66342       0
       7888.5187       11.237556       230.19607       0
       7900.6692       140.47087       173.35753       0
       7912.8197      -35.086480       202.24553       0
       7924.9703      -18.427169       159.14438       0
       7937.1208      -62.132570       182.81401       0
       7949.2713       64.123633       139.86778       0
       7961.4219       1.4975998       167.33943       0
       7973.5724       53.482441       128.71857       0
       7985.7229      -2.9379110       154.79902       0
       7997.8734       40.274551       119.13582       0
       8010.0240       61.956338       145.05127       0
       8022.1745       16.983278       112.19195       0
       8034.3250      -11.649922       136.82931       0
       8046.4755       82.406592       110.81992       0
       8058.6261       78.411174       132.13236       0
       8070.7766       56.412672       103.35154       0
       8082.9271       34.211844       127.07279       0
       8095.0776       60.006302       100.01085       0
       8107.2282       56.354205       123.05297       0
       8119.3787      0.55347822       95.801420       0
       8131.5292       3.3845129       118.20690       0
       8143.6797       40.790640       92.875559       0
       8155.8303       7.3325195       114.32162       1
       8167.9808       100.58918       89.716736       1
       8180.1313       82.543500       110.83677       1
       8192.2818       92.228774       86.777999       1
       8204.4324       52.616874       106.34563       1
       8216.5829      -13.987541       82.451426       1
       8228.7334       26.383180       101.30321       1
       8240.8839       35.848027       93.279106       1
       8253.0345       108.05129       97.034099       1
       8265.1850       16.509682       74.889925       1
       8277.3355       61.832039       91.787524       1
       8289.4860      -13.233435       71.305864       1
       8301.6366       27.146632       87.443417       1
       8313.7871       5.5396018       68.194941       1
       8325.9376      -19.567471       83.265575       1
       8338.0881       17.147696       66.008935       1
       8350.2387       42.467943       81.801881       1
       8362.3892       39.141241       64.414021       1
       8374.5397       76.138912       79.872157       1
       8386.6903       54.940962       63.121742       1
       8398.8408       17.201670       77.399238       1
       8410.9913       12.861965       71.786248       1
       8423.1418      -14.186936       74.412465       1
       8435.2924       24.338619       59.144758       1
       8447.4429       5.0989438       72.179725       1
       8459.5934      -8.1986244       56.896704       1
       8471.7439       42.801044       69.900246       1
       8483.8945       11.917465       55.535755       1
       8496.0450       24.165632       68.506212       1
       8508.1955      0.75997489       54.273752       1
       8520.3460       36.204220       67.251695       1
       8532.4966       10.198827       53.141601       1
       8544.6471       78.478492       66.628510       1
       8556.7976       22.648092       52.434721       1
       8568.9481       36.516400       65.575805       1
       8581.0987       54.965770       52.262299       1
       8593.2492       21.515198       64.954281       1
       8605.3997       16.368609       51.625205       1
       8617.5502      -3.7673509       64.050846       1
       8629.7008       35.966669       51.259375       1
       8641.8513       40.743291       63.845094       1
       8654.0018       9.6999890       50.603366       1
       8666.1523      -5.3419429       61.612868       1
       8678.3029       9.6893431       49.244151       1
       8690.4534       8.0184324       60.461852       1
       8702.6039       12.019892       47.600596       1
       8714.7544       28.484383       58.319070       1
       8726.9050       58.270553       46.086796       1
       8739.0555       23.917549       56.651208       1
       8751.2060       26.059765       44.951399       1
       8763.3565       18.989751       54.977847       1
       8775.5071       26.329918       43.663274       1
       8787.6576       44.202113       53.990420       1
       8799.8081       47.854185       42.877071       1
       8811.9587       25.373138       52.963118       1
       8824.1092       37.579432       49.745705       1
       8836.2597       23.659286       51.985291       1
       8848.4102      0.83403536       46.581987       1
       8860.5608       47.037899       50.776871       1
       8872.7113       42.361666       46.052720       1
       8884.8618       3.4495379       49.473670       1
       8897.0123       32.065439       39.564313       1
       8909.1629       49.513814       49.246488       1
       8921.3134       31.947858       39.040234       1
       8933.4639       62.179974       48.677030       1
       8945.6144       73.860966       38.522651       1
       8957.7650       34.523988       47.073464       1
       8969.9155       50.862982       37.646314       1
       8982.0660       27.533864       46.197749       1
       8994.2165       39.204814       38.504464       1
       9006.3671       42.866903       45.842682       1
       9018.5176       34.019142       36.554718       1
       9030.6681       43.321413       45.545796       1
       9042.8186       33.023937       36.175834       1
       9054.9692       19.822987       45.173187       1
       9067.1197       25.659682       35.918568       1
       9079.2702       16.087419       44.661985       1
       9091.4207       58.981173       41.808303       1
       9103.5713       16.982740       43.730161       1
       9115.7218       38.028236       41.129075       1
       9127.8723       61.223330       43.072075       1
       9140.0228       38.812351       33.893541       1
       9152.1734       23.030090       38.752250       1
       9164.3239       29.312285       33.263961       1
       9176.4744       25.254274       41.290918       1
       9188.6249       46.949291       32.764955       1
       9200.7755       36.107151       41.410480       1
       9212.9260       34.166004       32.050807       1
       9225.0765       35.368344       39.813586       1
       9237.2270       44.365097       32.888714       1
       9249.3776       25.480133       38.796772       1
       9261.5281       51.988488       31.377210       1
       9273.6786       44.364815       38.994279       1
       9285.8292       45.608961       32.255751       1
       9297.9797       46.310351       38.654646       1
       9310.1302       36.366846       31.743565       1
       9322.2807       38.888680       38.170678       1
       9334.4313       31.036999       39.440483       1
       9346.5818       30.573320       37.485351       1
       9358.7323       34.766657       30.166616       1
       9370.8828       3.8573943       34.391792       1
       9383.0334       39.481317       29.935074       1
       9395.1839       9.5410829       36.787787       1
       9407.3344       37.897473       29.502865       1
       9419.4849       29.767137       33.612898       1
       9431.6355       46.905232       29.119632       1
       9443.7860       40.294906       36.048349       1
       9455.9365       44.808400       28.781704       1
       9468.0870       43.015181       35.718154       1
       9480.2376       43.036836       28.380302       1
       9492.3881       68.582818       11007844.       1
       9504.5386       74.301488       28.374010       1
       9516.6891       60.913200       35.177585       1
       9528.8397       41.467383       27.757535       1
       9540.9902       38.568749       34.575815       1
       9553.1407       52.447053       28.945064       1
       9565.2912       72.261232       34.484229       1
       9577.4418       62.986712       33.404904       1
       9589.5923       54.564252       33.899134       1
       9601.7428       58.462055       30.338226       1
       9613.8933       43.319748       33.569870       1
       9626.0439       66.749769       26.773364       1
       9638.1944       37.787601       30.712410       1
       9650.3449       44.595524       26.540509       1
       9662.4954       34.195601       30.451623       1
       9674.6460       39.838998       27.221681       1
       9686.7965       46.965534       32.807803       1
       9698.9470       46.309860       26.117009       1
       9711.0976       47.009062       32.568932       1
       9723.2481       52.399246       25.818328       1
       9735.3986       38.383917       32.166249       1
       9747.5491       50.221292       25.453223       1
       9759.6997       39.562625       31.802906       1
       9771.8502       56.559277       25.389160       1
       9784.0007       53.091694       31.384735       1
       9796.1512       48.398611       25.623104       1
       9808.3018       27.980580       28.289591       1
       9820.4523       53.134014       25.140991       1
       9832.6028       38.625362       31.342517       1
       9844.7533       47.644971       25.049797       1
       9856.9039       58.012632       31.387576       1
       9869.0544       51.805228       24.884739       1
       9881.2049       54.716810       31.167466       1
       9893.3554       67.725814       25.309298       1
       9905.5060       73.675294       31.146788       1
       9917.6565       44.197405       24.909798       1
       9929.8070       75.305230       30.998770       1
       9941.9575       54.704289       24.641060       1
       9954.1081       50.718040       30.446677       1
       9966.2586       54.185178       24.290035       1
       9978.4091       44.432032       30.020498       1
       9990.5596       38.681133       26.973942       1
       10002.710       77.583330       30.047919       1
       10014.861       43.750112       23.530957       1
       10027.011       35.219964       29.236875       1
       10039.162       47.761457       23.398551       1
       10051.312       39.206920       29.312699       1
       10063.463       53.183882       23.486046       1
       10075.613       51.313156       29.339369       1
       10087.764       49.741646       24.552783       1
       10099.914       55.736682       29.326182       1
       10112.065       38.168510       23.387518       1
       10124.215       59.663183       29.171798       1
       10136.366       70.648569       27.767635       1
       10148.516       58.204268       29.067096       1
       10160.667       60.667306       24.091682       1
       10172.818       29.296394       26.473149       1
       10184.968       53.503867       22.897080       1
       10197.119       67.556236       28.881975       1
       10209.269       43.621322       22.728797       1
       10221.420       38.404308       28.291937       1
       10233.570       41.950931       22.380333       1
       10245.721       33.535134       27.953167       1
       10257.871       35.694748       22.174115       1
       10270.022       38.631334       25.641885       1
       10282.172       41.995211       22.123606       1
       10294.323       50.971792       27.531243       1
       10306.473       42.832940       21.899242       1
       10318.624       29.865204       24.639347       1
       10330.774       23.772314       21.731610       1
       10342.925       29.999742       27.665009       1
       10355.075       44.708782       21.715687       1
       10367.226       21.881046       26.588001       1
       10379.376       41.138406       21.644245       1
       10391.527       26.958955       24.426795       1
       10403.678       28.584504       21.556123       1
       10415.828       18.616666       26.610369       1
       10427.979       37.492189       24.572314       1
       10440.129       42.739021       27.035846       1
       10452.280       46.197337       21.507284       1
       10464.430       39.181726       26.691285       1
       10476.581       36.119374       27.925587       1
       10488.731       55.081530       27.140538       1
       10500.882       39.200231       22.250312       1
       10513.032       31.496650       27.149892       1
       10525.183       36.268488       21.643510       1
       10537.333       57.510851       27.374001       1
       10549.484       44.893034       21.566515       1
       10561.634       23.238915       24.884016       1
       10573.785       49.316990       21.631404       1
       10585.935       34.670151       26.873862       1
       10598.086       42.069437       21.430145       1
       10610.236       45.608959       26.645635       1
       10622.387       45.492195       21.296893       1
       10634.538       47.447996       26.538232       1
       10646.688       40.321564       20.861898       1
       10658.839       33.052942       26.169769       1
       10670.989       37.009234       21.623026       1
       10683.140       19.623219       25.799446       1
       10695.290       30.521142       20.787654       1
       10707.441       40.855967       25.894897       1
       10719.591       43.881845       20.789042       1
       10731.742       50.289960       25.979742       1
       10743.892       54.418575       20.854775       1
       10756.043       49.833522       26.542608       1
       10768.193       40.491183       20.781839       1
       10780.344       29.388838       26.342921       1
       10792.494       27.831793       20.682446       1
       10804.645       47.724078       25.872778       1
       10816.795       31.375096       20.654696       1
       10828.946       21.698922       7817817.2       1
       10841.096       45.757964       20.614672       1
       10853.247       17.711876       25.416113       1
       10865.397       56.084532       20.503003       1
       10877.548       48.075485       25.511021       1
       10889.699       36.700973       20.318112       1
       10901.849       43.900933       25.335804       1
       10914.000       42.822818       20.382898       1
       10926.150       42.042983       25.332999       1
       10938.301       51.884507       20.478484       1
       10950.451       50.679127       25.525116       1
       10962.602       46.291239       20.444164       1
       10974.752       24.711760       25.230247       1
       10986.903       34.267137       20.437375       1
       10999.053       36.707671       25.523067       1
       11011.204       37.679595       21.113004       1
       11023.354       40.688299       25.466712       1
       11035.505       44.727401       20.396685       1
       11047.655       35.251562       25.310795       1
       11059.806       30.457765       21.081559       1
       11071.956       37.457690       25.497020       1
       11084.107       31.524202       20.276960       1
       11096.257       21.140950       25.378366       1
       11108.408       38.099602       23.945049       1
       11120.559       36.626276       25.508543       1
       11132.709       32.787238       20.322412       1
       11144.860       44.097202       25.613171       1
       11157.010       58.781276       20.684461       1
       11169.161       33.178199       25.438827       1
       11181.311       54.208166       20.613748       1
       11193.462       42.412482       25.594044       1
       11205.612       40.399097       20.371596       0
       11217.763       38.480944       25.556660       0
       11229.913       35.763783       20.400292       0
       11242.064       32.861554       25.468940       0
       11254.214       55.354236       20.519639       0
       11266.365       54.905745       25.607036       0
       11278.515       45.860327       20.466339       0
       11290.666       43.162248       25.452231       0
       11302.816       59.238730       21.614874       0
       11314.967       45.918884       25.659905       0
       11327.117       49.189881       22.030368       0
       11339.268       33.284308       26.665627       0
       11351.419       53.073559       22.630857       0
       11363.569       44.919517       29.494403       0
       11375.720       60.941512       25.646424       0
       11387.870       42.712827       34.562145       0
       11400.021       53.686936       30.859070       0
       11412.171       36.407531       42.716801       0
       11424.322       45.382372       38.769466       0
       11436.472       34.453039       54.748153       0
       11448.623       25.083445       50.134785       0
       11460.773       74.117721       70.646228       0
       11472.924       103.05367       63.972292       0
       11485.074       43.620682       87.777097       0
       11497.225       44.644149       78.176288       0
       11509.375       15.062662       108.15288       0
       11521.526       32.612472       97.515987       0
       11533.676      0.62299593       138.04120       0
       11545.827       8.2947689       130.42819       0
       11557.977       5.1141198       193.34476       0
       11570.128       65.657364       192.36097       0
       11582.279       97.409566       295.31352       0
       11594.429      -82.369251       294.25075       0
       11606.580      -144.85510       456.65368       0
       11618.730      -48.487032       444.33222       0
       11630.881       55.422488   2.0501278e+08       0
       11643.031      -358.42694       650.50750       0
       11655.182      -364.05009       1002.1728       0
       11667.332       779.24055       1038.7115       0
       11679.483      -1013.4848       1678.4865       0
       11691.633      -311.88741       1747.7321       0
       11703.784      -556.69508       2868.2526       0
       11715.934      -2933.9710       2992.2478       0
       11728.085       1819.8992       4609.0055       0
       11740.235      -2951.3090       3982.7665       0
       11752.386      -1688.9651       5195.4139       0
       11764.536       655.62702       4014.4151       0
       11776.687      -1880.9694       4959.9111       0
       11788.837       1120.9696       3870.4944       0
       11800.988       390.71667       4973.5410       0
       11813.138      -1116.7901       4224.0096       0
       11825.289      -2143.4774       5983.0933       0
       11837.440      -4374.1650       5579.9039       0
       11849.590       239.41778       8283.6343       0
       11861.741      -1387.4810       7877.6750       0
