#WAVELENGTH FLUX ERROR MASK
       7496.4791      -454.43854       20535.975       0
       7508.5798       412.42249       14073.805       0
       7520.6806      -12837.248       14455.477       0
       7532.7814       6653.5934       10201.568       0
       7544.8821      -11182.797       9992.9776       0
       7556.9829      -2227.3702       6517.6393       0
       7569.0836       3135.2573       6405.2731       0
       7581.1844      -6928.6387       4076.9089       0
       7593.2852       4190.1286       4183.4381       0
       7605.3859      -3577.4927       2796.8108       0
       7617.4867      -464.57004       2949.5702       0
       7629.5875      -5025.2970       3535.5823       0
       7641.6882      -3429.2541       2143.6708       0
       7653.7890      -120.39607       1546.1453       0
       7665.8898       931.69877       1590.9653       0
       7677.9905      -55.043939       1082.9384       0
       7690.0913       776.53675       1114.5995       0
       7702.1920       28.217037       763.61922       0
       7714.2928      -473.02081       794.86729       0
       7726.3936      -58.210172       577.19029       0
       7738.4943       316.29761       632.68455       0
       7750.5951       226.39966       473.38485       0
       7762.6959      -459.00656       529.33609       0
       7774.7966       202.09067       406.07970       0
       7786.8974       309.70201       457.54077       0
       7798.9982       152.33388       335.90695       0
       7811.0989       486.05157       529.32625       0
       7823.1997      -319.34404       271.02988       0
       7835.3004       686.56327       305.26135       0
       7847.4012       173.88959       221.71704       0
       7859.5020      -40.401275       243.41951       0
       7871.6027       419.77197       185.38969       0
       7883.7035      -109.30511       204.77403       0
       7895.8043       35.860653       157.20768       0
       7907.9050      -25.832371       180.66433       0
       7920.0058       346.77991       141.08624       0
       7932.1066       22.355786       164.07248       0
       7944.2073      -3.3937211       126.30036       0
       7956.3081       306.93192       151.34016       0
       7968.4088       333.13031       117.97361       0
       7980.5096       127.72419       137.03475       0
       7992.6104       168.52129       108.70435       0
       8004.7111       16.430344       126.42625       0
       8016.8119       282.77294       102.54246       0
       8028.9127       193.13019       121.42724       0
       8041.0134       54.228293       95.426089       0
       8053.1142       91.717191       115.71347       0
       8065.2150       17.763162       91.750931       0
       8077.3157       10.355280       110.22531       0
       8089.4165       277.84471       91.534107       0
       8101.5172       197.19645       107.66303       0
       8113.6180       64.395909       86.173667       0
       8125.7188       51.884547       103.19682       0
       8137.8195       169.12673       82.976202       0
       8149.9203       99.343948       100.54096       0
       8162.0211       103.52391       80.154473       1
       8174.1218       117.47299       97.057421       1
       8186.2226       44.493165       77.461750       1
       8198.3234       211.52040       95.007612       1
       8210.4241       79.683695       74.254046       1
       8222.5249       35.427268       88.839149       1
       8234.6256       29.037583       70.622693       1
       8246.7264       45.475295       76.287954       1
       8258.8272       156.70065       58.906136       1
       8270.9279       116.47790       72.954164       1
       8283.0287       49.884943       55.713736       1
       8295.1295       79.257640       68.980315       1
       8307.2302       79.280276       53.417327       1
       8319.3310       47.999557       65.963740       1
       8331.4318       79.269477       51.263668       1
       8343.5325       130.98829       64.656712       1
       8355.6333       122.16929       50.195271       1
       8367.7340       65.324668       62.733741       1
       8379.8348       88.601425       48.734575       1
       8391.9356       53.384299       60.530319       1
       8404.0363       143.19899       48.051156       1
       8416.1371       37.668902       59.307000       1
       8428.2379       130.15777       46.420161       1
       8440.3386       17.355401       56.754282       1
       8452.4394       106.57246       45.086869       1
       8464.5402       78.132250       54.952307       1
       8476.6409       95.165223       43.532103       1
       8488.7417       104.15769       52.831750       1
       8500.8424       130.58420       42.414189       1
       8512.9432       41.995380       52.652789       1
       8525.0440       85.974632       41.472742       1
       8537.1447       96.081989       52.249973       1
       8549.2455       117.20390       41.312391       1
       8561.3463       99.758004       51.608891       1
       8573.4470       50.754597       40.237351       1
       8585.5478       67.891639       50.433678       1
       8597.6486       110.15521       40.501052       1
       8609.7493       115.14088       50.870911       1
       8621.8501       105.50044       40.063055       1
       8633.9508      -12.624793       49.717630       1
       8646.0516       87.957419       39.344933       1
       8658.1524       48.338584       48.768822       1
       8670.2531       104.43442       38.838706       1
       8682.3539       98.126182       45.243853       1
       8694.4547       148.46355       37.925371       1
       8706.5554       216.08688       45.516828       1
       8718.6562       109.69207       36.382124       1
       8730.7570       93.728433       48.305594       1
       8742.8577       93.333003       35.038614       1
       8754.9585       131.54215       44.112759       1
       8767.0592       172.84737       76.569942       1
       8779.1600      -13.551983       41.678164       1
       8791.2608       109.54435       35.833799       1
       8803.3615       106.81232       41.900047       1
       8815.4623       96.372081       35.552011       1
       8827.5631      -5.2018273       0.0000000       1
       8839.6638       123.21541       32.406931       1
       8851.7646       163.15825       40.568506       1
       8863.8654       124.04464       31.667262       1
       8875.9661       87.471443       39.059043       1
       8888.0669       114.99813       31.055455       1
       8900.1676       84.929995       38.953146       1
       8912.2684       119.20558       30.721980       1
       8924.3692       155.32237       38.820730       1
       8936.4699       158.11436       30.504588       1
       8948.5707       114.19946       38.192418       1
       8960.6715       162.66012       29.932614       1
       8972.7722       75.975809       36.951242       1
       8984.8730       88.311262       28.639045       1
       8996.9737       163.64339       36.594021       1
       9009.0745       168.88998       29.034261       1
       9021.1753       106.59389       35.762040       1
       9033.2760       160.13579       28.822239       1
       9045.3768       73.508593       35.475122       1
       9057.4776       99.703550       28.283288       1
       9069.5783       154.47996       35.441139       1
       9081.6791       157.70598       27.808822       1
       9093.7799       161.68542       35.178107       1
       9105.8806       200.93337       47.527048       1
       9117.9814       170.18676       36.143713       1
       9130.0821       125.87150       26.609428       1
       9142.1829       128.44370       33.880813       1
       9154.2837       171.90218       26.534332       1
       9166.3844       201.60607       33.775863       1
       9178.4852       183.34014       25.965354       1
       9190.5860       139.28981       32.369396       1
       9202.6867       175.01602       29.492593       1
       9214.7875       170.98546       35.905744       1
       9226.8883       144.06442       29.013069       1
       9238.9890       201.23827       36.037408       1
       9251.0898       177.97231       35.342158       1
       9263.1905       177.87017       35.146029       1
       9275.2913       167.77626       28.401563       1
       9287.3921       124.18114       34.249041       1
       9299.4928       131.33796       27.862705       1
       9311.5936       88.653281       33.372020       1
       9323.6944       174.94820       27.928629       1
       9335.7951       185.89826       33.951099       1
       9347.8959       186.23936       28.679681       1
       9359.9967       123.82512       33.501053       1
       9372.0974       175.04242       27.420778       1
       9384.1982       175.29098       33.106024       1
       9396.2989       148.12289       26.828818       1
       9408.3997       192.39223       33.095883       1
       9420.5005       206.43261       26.884901       1
       9432.6012       198.02597       32.785638       1
       9444.7020       189.88408       26.488345       1
       9456.8028       183.34436       32.241370       1
       9468.9035       229.55334       26.696673       1
       9481.0043       173.82526       31.388064       1
       9493.1051       186.04626       25.956909       1
       9505.2058       193.39250       31.741001       1
       9517.3066       187.55860       25.806312       1
       9529.4073       406.27758       33.262949       1
       9541.5081       232.92754       25.901102       1
       9553.6089       221.88747       31.302371       1
       9565.7096       241.04241       44.114584       1
       9577.8104       187.29125       30.795990       1
       9589.9112       217.85884       25.092920       1
       9602.0119       217.26060       30.809275       1
       9614.1127       159.85302       26.054925       1
       9626.2135       225.34123       30.425982       1
       9638.3142       173.55077       24.378009       1
       9650.4150       192.96913       30.030635       1
       9662.5157       199.96110       24.579062       1
       9674.6165       147.44177       29.482873       1
       9686.7173       117.13958       40.961186       1
       9698.8180       186.53032       29.451513       1
       9710.9188       175.72252       23.970436       1
       9723.0196       164.23255       29.142234       1
       9735.1203       182.69384       23.759719       1
       9747.2211       196.63200       28.293235       1
       9759.3219       241.65423       23.955586       1
       9771.4226       265.98475       29.476214       1
       9783.5234       235.99454       23.513356       1
       9795.6241       231.96331       29.086213       1
       9807.7249       204.87068       23.533955       1
       9819.8257       170.68205       28.387420       1
       9831.9264       184.65534       23.125671       1
       9844.0272       189.13999       27.994080       1
       9856.1280       221.27746       23.319435       1
       9868.2287       220.11585       28.539298       1
       9880.3295       240.54414       23.407818       1
       9892.4303       204.30470       28.095934       1
       9904.5310       224.40716       23.134425       1
       9916.6318       203.65353       28.175046       1
       9928.7325       207.19723       22.957933       1
       9940.8333       160.56327       27.552587       1
       9952.9341       240.20162       22.728643       1
       9965.0348       191.83033       27.693456       1
       9977.1356       251.51635       22.671464       1
       9989.2364       211.85492       27.339124       1
       10001.337       208.80604       22.118609       1
       10013.438       217.25941       26.910267       1
       10025.539       192.02766       21.969364       1
       10037.639       249.09939       27.112121       1
       10049.740       204.09500       21.784207       1
       10061.841       173.95422       26.398772       1
       10073.942       249.61309       22.049828       1
       10086.042       171.87210       26.488879       1
       10098.143       208.85072       21.833291       1
       10110.244       180.66449       26.109937       1
       10122.345       161.63721       21.251932       1
       10134.446       167.65219       26.006738       1
       10146.546       197.28005       18.804719       1
       10158.647       149.94665       23.133597       1
       10170.748       186.26247       22.792472       1
       10182.849       161.57554       23.191344       1
       10194.949       185.03320       18.330005       1
       10207.050       170.55309       22.979127       1
       10219.151       161.25808       18.017928       1
       10231.252       148.57939       22.743260       1
       10243.352       177.75216       17.926790       1
       10255.453       151.74028       22.232163       1
       10267.554       194.46946       17.800306       1
       10279.655       133.51383       21.987619       1
       10291.755       215.23879       17.946218       1
       10303.856       226.69693       22.175456       1
       10315.957       216.63055       17.750340       1
       10328.058       212.33622       22.115961       1
       10340.159       210.05835       17.485237       1
       10352.259       199.02602       22.193743       1
       10364.360       230.98519       17.708688       1
       10376.461       213.95559       22.175529       1
       10388.562       221.08909       17.672437       1
       10400.662       253.66966       22.531342       1
       10412.763       219.02990       17.575325       1
       10424.864       230.22827       22.182651       1
       10436.965       236.80351       17.654118       1
       10449.065       269.35692       22.467315       1
       10461.166       218.81056       17.470376       1
       10473.267       207.72191       22.000930       1
       10485.368       198.10609       17.316164       1
       10497.468       216.78915       22.010249       1
       10509.569       220.61592       17.458459       1
       10521.670       244.59684       22.391872       1
       10533.771       239.68272       17.590782       1
       10545.871       221.61205       22.162167       1
       10557.972       234.11395       17.526378       1
       10570.073       198.35913       21.535191       1
       10582.174       242.25605       17.599861       1
       10594.275       197.97321       21.872410       1
       10606.375       193.92682       17.174687       1
       10618.476       207.46081       21.711567       1
       10630.577       235.70423       17.183036       1
       10642.678       264.49077       21.907874       1
       10654.778       243.46168       17.077104       1
       10666.879       221.68825       21.355478       1
       10678.980       213.04773       16.926101       1
       10691.081       234.07888       21.313540       1
       10703.181       217.12660       16.849236       1
       10715.282       243.64429       21.220891       1
       10727.383       212.11965       16.844187       1
       10739.484       233.18266       23.344842       1
       10751.584       211.21027       16.787576       1
       10763.685       261.59861       18114481.       1
       10775.786       228.98477       16.724110       1
       10787.887       231.43948       21.270902       1
       10799.988       224.90305       16.885923       1
       10812.088       232.30408       21.189170       1
       10824.189       220.18822       28.857472       1
       10836.290       219.34412       21.172571       1
       10848.391       228.67594       16.627570       1
       10860.491       305.59958       21.556826       1
       10872.592       232.43541       16.648833       1
       10884.693       230.13039       20.806636       1
       10896.794       205.49556       16.369030       1
       10908.894       227.64783       20.607684       1
       10920.995       205.32748       20.135616       1
       10933.096       240.16365       20.367514       1
       10945.197       218.95392       16.434903       1
       10957.297       217.73433       20.690868       1
       10969.398       215.08688       16.293655       1
       10981.499       224.81279       20.725111       1
       10993.600       223.17485       16.342329       1
       11005.701       242.69753       20.880933       1
       11017.801       238.38420       16.391520       1
       11029.902       225.36742       20.634352       1
       11042.003       234.40173       16.422353       1
       11054.104       204.83487       20.583319       1
       11066.204       210.91646       16.227395       1
       11078.305       239.29121       20.791829       1
       11090.406       237.27325       16.384828       1
       11102.507       223.42379       22.860010       1
       11114.607       215.99410       18.632633       1
       11126.708       220.05656       22.926097       1
       11138.809       221.66320       18.768665       1
       11150.910       180.57659       22.514226       1
       11163.010       202.16672       18.533501       1
       11175.111       215.46861       22.840511       1
       11187.212       240.32950       18.895077       1
       11199.313       146.38437       22.340041       1
       11211.413       215.81357       18.632125       0
       11223.514       211.99586       22.837963       0
       11235.615       220.48223       18.572880       0
       11247.716       232.30721       22.842922       0
       11259.817       217.44129       18.742854       0
       11271.917       223.16647       22.807066       0
       11284.018       209.52366       18.578725       0
       11296.119       235.08625       23.006976       0
       11308.220       217.94775       18.605492       0
       11320.320       231.56495       22.989023       0
       11332.421       245.08603       19.295540       0
       11344.522       211.96107       24.123200       0
       11356.623       207.33136       22.069182       0
       11368.723       259.29665       26.880647       0
       11380.824       209.87811       22.888648       0
       11392.925       207.07044       30.421240       0
       11405.026       193.67077       33.200322       0
       11417.126       152.96159       36.894315       0
       11429.227       258.46414       34.280769       0
       11441.328       269.22326       48.219074       0
       11453.429       259.50812       43.593035       0
       11465.530       235.16144       60.579719       0
       11477.630       257.88698       55.397741       0
       11489.731       275.18196       75.164788       0
       11501.832       208.80223       67.205311       0
       11513.933       210.50702       91.371449       0
       11526.033       86.237362       82.770348       0
       11538.134       135.86503       115.90960       0
       11550.235       215.06758       112.04481       0
       11562.336       211.08172       163.84398       0
       11574.436       225.83434       163.02417       0
       11586.537       70.516071       245.79934       0
       11598.638       436.34367       246.91367       0
       11610.739       1030.2742       385.32722       0
       11622.839      -50.498058       402.48777       0
       11634.940      -398.26887       554.89409       0
       11647.041       867.39030       595.88426       0
       11659.142       565.14786       829.38091       0
       11671.242       896.15948       859.78647       0
       11683.343       754.68008       1378.2294       0
       11695.444       485.69418       1385.0689       0
       11707.545      -1167.2733       2295.2633       0
       11719.646       1542.7897       2489.7392       0
       11731.746       562.25136       3765.6085       0
       11743.847       2023.3148       3382.6065       0
       11755.948      -356.54251       4189.7837       0
       11768.049       6406.9488       3448.7071       0
       11780.149      -2111.9404       4066.4744       0
       11792.250       234.63243       3228.6022       0
       11804.351       2447.5316       4086.5732       0
       11816.452       2693.1350       3564.9602       0
       11828.552      -6940.7234       4717.1807       0
       11840.653      -357.42193       4587.8976       0
