#WAVELENGTH FLUX ERROR MASK
       10195.874      -560.72685       3170.9378       0
       10218.872       74.083941       2723.2305       0
       10241.871       535.80622       2425.4213       0
       10264.869      -541.24559       2011.1963       0
       10287.868      -737.53593       1777.4425       0
       10310.866       557.07813       1531.1296       0
       10333.865       107.74330       1381.3545       0
       10356.863       328.68962   3.5419287e+08       0
       10379.862       691.25669       1168.2403       0
       10402.860       710.85432       1030.8237       0
       10425.859       263.87669       957.89356       0
       10448.857       186.51434       807.90743       0
       10471.856       86.571133       707.39146       0
       10494.854      -35.162471       575.03685       0
       10517.853       215.10385       505.07991       0
       10540.851       290.00162       421.73902       0
       10563.850       203.35391       377.52302       0
       10586.848       261.44486       325.83521       0
       10609.847       30.923753       299.38027       0
       10632.845       12.018076       259.47284       0
       10655.844       262.71029       244.22748       0
       10678.842       49.297672       205.05452       0
       10701.841       138.53437       185.23815       0
       10724.839       226.41183       151.63553       0
       10747.838       101.30233       113.47348       0
       10770.836      -51.500244       102.73458       0
       10793.835       127.29938       90.842079       0
       10816.833       97.069671       75.277834       0
       10839.832       115.44462       67.815125       0
       10862.830       70.437303       58.385020       0
       10885.829       81.180253       55.649913       0
       10908.827       103.68233       49.648016       0
       10931.826       55.965351       41.146957       0
       10954.824       44.447021       42.839367       0
       10977.823       101.77957       42.030116       0
       11000.821       69.822676       32.504616       1
       11023.820       62.845670       35.891090       1
       11046.818       73.453301       33.081842       1
       11069.817       97.336645       32.221186       1
       11092.815       93.601209       29.715961       1
       11115.814       93.910869       29.498620       1
       11138.812       78.943946       27.583282       1
       11161.811       106.83909       27.950503       1
       11184.809       91.670062       26.444461       1
       11207.808       103.06518       27.114851       1
       11230.806       91.788981       25.708436       1
       11253.805       73.454764       26.017925       1
       11276.803       77.319392       25.053214       1
       11299.802       107.45509       25.896092       1
       11322.800       87.166604       24.828356       1
       11345.799       74.375758       25.131844       1
       11368.797       92.035195       24.386751       1
       11391.796       82.818244       24.684836       1
       11414.794       94.112196       23.869622       1
       11437.793       75.015743       24.380159       1
       11460.791       71.930194       23.395184       1
       11483.790       65.057432       23.793300       1
       11506.788       90.673623       23.268420       1
       11529.787       70.280125       23.821707       1
       11552.785       48.616180       20.022320       1
       11575.784       86.093306       23.811036       1
       11598.782       70.344522       22.848730       1
       11621.781       92.407215       23.512807       1
       11644.779       91.542423       22.535119       1
       11667.777       90.153621       23.105704       1
       11690.776       87.538944       22.028350       1
       11713.774       100.79596       22.628053       1
       11736.773       103.79860       21.770033       1
       11759.771       94.809859       21.946793       1
       11782.770       101.35486       21.298131       1
       11805.768       84.927493       19.003611       1
       11828.767       98.255883       20.903572       1
       11851.765       87.857933       5632822.1       1
       11874.764       93.058074       20.372325       1
       11897.762       102.08439       21.022928       1
       11920.761       82.228757       20.016389       1
       11943.759       89.544443       20.527964       1
       11966.758       87.489454       19.761120       1
       11989.756       75.034679       20.076441       1
       12012.755       84.123040       19.411350       1
       12035.753       91.108479       19.986051       1
       12058.752       79.674219       19.166587       1
       12081.750       97.588827       19.773666       1
       12104.749       71.752018       18.811846       1
       12127.747       100.94825       19.701012       1
       12150.746       86.494604       18.766885       1
       12173.744       91.332321       19.265518       1
       12196.743       72.125664       18.354710       1
       12219.741       71.594466       18.868337       1
       12242.740       64.065595       18.107372       1
       12265.738       76.979826       18.700320       1
       12288.737       78.213856       18.088043       1
       12311.735       69.296365       4941588.8       1
       12334.734       76.446559       17.876117       1
       12357.732       89.466840       18.535950       1
       12380.731       83.131751       17.735442       1
       12403.729       85.137165       18.265010       1
       12426.728       78.283452       17.574179       1
       12449.726       94.186689       18.174130       1
       12472.725       75.864426       17.473605       1
       12495.723       81.679672       17.902721       1
       12518.722       83.645537       17.395659       1
       12541.720       86.905979       17.864946       1
       12564.719       97.235732       17.436804       1
       12587.717       85.369473       17.780995       1
       12610.716       63.433150       15.661041       1
       12633.714       85.324468       17.755904       1
       12656.713       92.072556       17.200480       1
       12679.711       77.580547       17.479292       1
       12702.710       85.923648       16.934683       1
       12725.708       76.255057       17.235649       1
       12748.707       85.675670       16.722238       1
       12771.705       100.92476       17.250451       1
       12794.704       79.073651       16.403315       1
       12817.702       83.000563       18.637546       1
       12840.701       82.418546       16.331770       1
       12863.699       84.375008       18.704286       1
       12886.698       77.445305       16.136813       1
       12909.696       80.322574       16.619014       1
       12932.695       79.063324       16.027877       1
       12955.693       82.357286       16.469198       1
       12978.692       81.958025       15.885995       1
       13001.690       92.423334       16.407875       1
       13024.689       85.485420       15.733490       1
       13047.687       82.049586       16.013847       1
       13070.686       82.225996       15.536551       1
       13093.684       85.464442       16.035118       1
       13116.683       77.611898       15.347338       1
       13139.681       82.343710       15.876768       1
       13162.680       82.224320       15.256941       1
       13185.678       77.518480       15.619555       1
       13208.677       77.460531       15.022213       1
       13231.675       93.019263       15.624309       1
       13254.674       80.630199       15.045137       1
       13277.672       78.308355       15.365748       1
       13300.671       86.707052       14.955539       1
       13323.669       96.391724       15.462260       1
       13346.668       64.642164       12.720450       1
       13369.666       93.094667       15.313061       1
       13392.665       80.490236       14.661675       1
       13415.663       87.793596       15.211919       1
       13438.662       72.869957       14.493959       1
       13461.660       89.989603       15.078560       1
       13484.659       81.159557       14.471525       1
       13507.657       84.212368       14.844466       1
       13530.656       86.837137       14.402572       1
       13553.654       87.527328       14.827497       1
       13576.653       103.48159       14.653172       1
       13599.651       94.230642       14.973178       1
       13622.650       84.877287       14.374087       1
       13645.648       74.410480       14.712579       1
       13668.647       83.520786       14.237569       1
       13691.645       61.365477       12.902998       1
       13714.644       80.265747       14.365714       1
       13737.642       79.523282       14.831970       1
       13760.641       96.450014       14.550618       1
       13783.639       84.581500       14.912042       1
       13806.638       69.692944       14.282893       1
       13829.636       94.084167       14.924105       1
       13852.635       77.009731       14.316585       1
       13875.633       84.173893       14.828140       1
       13898.632       78.250303       14.298817       1
       13921.630       46.519869       12.580654       1
       13944.629       86.604148       14.328121       1
       13967.627       85.607845       14.653526       1
       13990.626       80.693192       14.086933       1
       14013.624       90.592330       14.622299       1
       14036.623       75.710824       13.938531       1
       14059.621       94.995148       14.518835       1
       14082.620       77.653491       13.808527       1
       14105.618       93.194719       14.409851       1
       14128.617       85.143630       13.883148       1
       14151.615       83.057830       14.244973       1
       14174.614       82.978161       13.765726       1
       14197.612       84.738078       14.179717       1
       14220.611       93.746144       13.864043       1
       14243.609       89.741129       14.169744       1
       14266.608       87.538712       13.638354       1
       14289.606       65.575530       12.219717       1
       14312.605       92.242159       13.572952       1
       14335.603       79.045886       13.788459       1
       14358.602       85.466083       13.423480       1
       14381.600       80.270138       13.701595       1
       14404.599       54.544269       11.501530       1
       14427.597       77.554907       13.798223       1
       14450.596       80.989471       13.376813       1
       14473.594       75.491315       13.794908       1
       14496.593       85.162988       13.423676       1
       14519.591       72.609681       13.761821       1
       14542.590       68.969417       13.269709       1
       14565.588       84.431934       13.812537       1
       14588.587       77.655443       13.436858       1
       14611.585       81.391870       13.780496       1
       14634.584       80.287327       13.431256       1
       14657.582       83.482659       13.781412       1
       14680.581       78.429548       13.439375       1
       14703.579       81.350695       13.834263       1
       14726.578       68.852489       13.367810       1
       14749.576       75.266759       13.742151       1
       14772.575       76.669137       13.469824       1
       14795.573       76.186027       13.793408       1
       14818.572       75.874958       13.359259       1
       14841.570       65.312862       3574894.5       1
       14864.569       73.151200       13.286886       1
       14887.567       78.999426       13.794137       1
       14910.566       90.003431       13.385921       1
       14933.564       77.471699       13.624648       1
       14956.563       70.844250       13.108086       1
       14979.561       78.364831       13.495887       1
       15002.560       76.281770       13.051588       1
       15025.558       74.018665       13.460676       1
       15048.557       60.299054       11.908899       1
       15071.555       85.437489       13.648801       1
       15094.554       67.398750       13.007273       1
       15117.552       79.228019       13.553645       1
       15140.551       74.322075       13.133281       1
       15163.549       80.565676       13.506834       1
       15186.548       79.627277       13.111707       1
       15209.546       75.350362       13.476256       1
       15232.545       85.212953       13.196883       1
       15255.543       74.517312       13.495005       1
       15278.542       71.793311       13.105025       1
       15301.540       70.297503       13.488157       1
       15324.539       81.803953       13.240626       1
       15347.537       73.411609       13.567543       1
       15370.536       77.666514       13.274189       1
       15393.534       79.702159       13.699594       1
       15416.533       83.088333       13.379922       1
       15439.531       62.663200       12.552297       1
       15462.530       92.240402       13.499617       1
       15485.528       97.514906       13.952761       1
       15508.527       99.925088       13.707115       1
       15531.525       91.592966       13.940775       1
       15554.524       82.842090       13.540008       1
       15577.522       81.613555       13.973879       1
       15600.521       77.683496       13.500252       1
       15623.519       72.224399       13.886141       1
       15646.518       79.589377       13.522811       1
       15669.516       79.697709       13.963463       1
       15692.515       71.250801       13.502178       1
       15715.513       60.738743       13.765074       1
       15738.512       60.437290       13.592563       1
       15761.510       54.452398       13.733743       1
       15784.509       35.428428       11.925159       1
       15807.507       67.207023       13.904536       1
       15830.506       79.442192       13.512130       1
       15853.504       75.290153       13.916007       1
       15876.503       71.971411       13.594061       1
       15899.501       24.450971       12.036678       1
       15922.500       60.664582       13.553357       1
       15945.498       58.708902       14.237277       1
       15968.497       70.380878       13.769032       1
       15991.495       78.328488       14.521665       1
       16014.494       57.953538       13.628931       1
       16037.492       66.779478       14.138912       1
       16060.491       63.778393       13.673456       1
       16083.489       69.110874       14.213592       1
       16106.488       67.044773       13.749237       1
       16129.486       20.397158       12.278851       1
       16152.485       43.389792       13.688348       1
       16175.483       58.521558       14.280988       1
       16198.482       66.008044       14.112349       1
       16221.480       59.481060       14.451233       1
       16244.479       51.555652       14.004566       1
       16267.477       61.838128       14.653651       1
       16290.476       67.128200       14.268634       1
       16313.474       70.002741       14.808240       1
       16336.473       69.615810       14.437442       1
       16359.471       73.564922       14.949408       1
       16382.470       68.997620       14.511867       1
       16405.468       73.520964       14.976753       1
       16428.467       75.128719       14.574438       1
       16451.465       64.417267       14.981786       1
       16474.464       70.007189       14.710593       1
       16497.462       76.860647       15.513404       1
       16520.461       68.365665       15.321495       1
       16543.459       58.965422       16.223911       1
       16566.458       64.952926       16.537702       1
       16589.456       81.249934       17.997945       1
       16612.455       76.141486       18.681614       1
       16635.453       68.355545       20.662254       1
       16658.452       61.639982       21.778480       1
       16681.450       65.316717       24.650603       1
       16704.449     -0.38571987       23.104286       1
       16727.447       61.218523       31.014245       1
       16750.446       118.54609       34.492033       0
       16773.444       54.975627       40.129820       0
       16796.443       63.991445       44.328252       0
       16819.441       44.731466       51.922495       0
       16842.440       62.907524       58.032948       0
       16865.438       110.44156       65.839546       0
       16888.437       67.725229       71.531588       0
       16911.435       85.804457       82.673174       0
       16934.434       17.930373       88.580806       0
       16957.432       137.09150       101.84165       0
       16980.431       88.156442       111.48245       0
       17003.429      -138.62854       116.84121       0
       17026.428       104.16758       137.10796       0
       17049.426       96.683666       156.48542       0
       17072.425      -313.08015       154.74478       0
       17095.423       165.98926       195.54968       0
       17118.422       306.46634       218.82851       0
       17141.420      -117.80962       253.78101       0
       17164.419      -478.19953       263.24646       0
       17187.417       139.43051       341.87190       0
       17210.416       205.98093       378.15488       0
       17233.414       14.193654       436.58150       0
       17256.413      -29.890256       476.30689       0
       17279.411       848.29863       553.44491       0
       17302.410       371.55189       586.53917       0
       17325.408       19.574000       660.78975       0
       17348.407       687.94039       721.82246       0
