#WAVELENGTH FLUX ERROR MASK
       10192.332       3548.0626       3031.1327       0
       10215.205      -2381.9823       2674.1247       0
       10238.078       310.17584       2334.6445       0
       10260.951       261.65275       1998.0723       0
       10283.824       737.76706       1728.6565       0
       10306.697       1628.6314       1534.5542       0
       10329.570      -1352.4598       1329.2918       0
       10352.443       2034.0836       1236.1128       0
       10375.316       1231.2802       1125.1462       0
       10398.189      -757.30106       1003.4357       0
       10421.062      -229.69946       913.62355       0
       10443.935       952.27555       803.10480       0
       10466.808       568.24509       695.97614       0
       10489.681      -200.57081       574.02538       0
       10512.554       160.94375       492.79321       0
       10535.427      -204.19297       420.64561       0
       10558.300       262.42841       366.32348       0
       10581.172      -263.70577       316.77902       0
       10604.045       334.80844       290.26736       0
       10626.918       30.915866       253.71042       0
       10649.791       227.08422       235.30127       0
       10672.664       61.043565       207.35814       0
       10695.537       212.06155       181.44200       0
       10718.410       199.39211       153.90054       0
       10741.283       296.72768       129.68620       0
       10764.156       113.28284       107.26132       0
       10787.029       396.67482       90.252489       0
       10809.902       324.64809       78.286400       0
       10832.775       305.99801       67.788605       0
       10855.648       265.98346       60.523164       0
       10878.521       201.90767       54.503020       0
       10901.394       307.80736       51.630622       0
       10924.267       182.43153       46.525796       0
       10947.140       278.07519       45.110973       0
       10970.013       259.18596       41.746483       0
       10992.886       213.02465       39.100838       0
       11015.759       278.43422       36.623930       1
       11038.632       243.91478       34.236801       1
       11061.505       182.78058       31.843477       1
       11084.378       258.50075       30.931006       1
       11107.251       252.77569       29.334936       1
       11130.124       236.70970       28.542040       1
       11152.997       222.19012       27.407547       1
       11175.870       227.56684       27.220537       1
       11198.743       224.91664       26.651988       1
       11221.616       195.77545       25.880415       1
       11244.489       226.04981       26.014390       1
       11267.362       216.99753       25.777506       1
       11290.235       206.05059       25.509550       1
       11313.108       198.28144       30.751541       1
       11335.981       309.80721       25.954422       1
       11358.854       181.88826       29.952564       1
       11381.727       228.26600       24.757909       1
       11404.599       223.57363       24.366106       1
       11427.472       215.92768       24.186283       1
       11450.345       262.27132       24.594462       1
       11473.218       195.62238       23.649061       1
       11496.091       208.89399       23.955719       1
       11518.964       225.23369       23.909275       1
       11541.837       216.86475       23.821548       1
       11564.710       197.86537       23.592079       1
       11587.583       223.83464       23.488086       1
       11610.456       226.71320       23.369695       1
       11633.329       238.78216       23.571450       1
       11656.202       199.05760       22.880862       1
       11679.075       247.36648       23.197909       1
       11701.948       226.82445       22.620399       1
       11724.821       269.77537       22.634861       1
       11747.694       233.18696       22.109917       1
       11770.567       244.95815       21.853657       1
       11793.440       253.72163       22.018602       1
       11816.313       231.94292       21.666643       1
       11839.186     -0.72136801       0.0000000       1
       11862.059       248.53864       21.497893       1
       11884.932       252.03566       21.245869       1
       11907.805       246.42785       21.154330       1
       11930.678       225.30502       20.590247       1
       11953.551       195.95303       20.374844       1
       11976.424       227.63918       20.661631       1
       11999.297       236.01127       20.442795       1
       12022.170       206.61625       19.981348       1
       12045.043       218.58834       20.075822       1
       12067.916       178.06166       19.554911       1
       12090.789       179.37079       19.559029       1
       12113.662       216.88927       19.650164       1
       12136.535       209.44520       19.349153       1
       12159.408       218.10254       19.592695       1
       12182.281       177.83625       19.013720       1
       12205.154       220.40973       19.267214       1
       12228.026       176.78942       18.646728       1
       12250.899       235.12192       19.277291       1
       12273.772       179.92530       18.079592       1
       12296.645       192.96993       18.731261       1
       12319.518       203.60277       18.528339       1
       12342.391       236.40657       18.800413       1
       12365.264       211.02951       18.568842       1
       12388.137       177.03002       18.080336       1
       12411.010       200.56812       18.270288       1
       12433.883       208.16898       17.113755       1
       12456.756       223.05098       16.286764       1
       12479.629       205.79276       17.040063       1
       12502.502       181.14934       15.798321       1
       12525.375       205.65434       16.862881       1
       12548.248       223.25437       16.062183       1
       12571.121       214.97521       16.898431       1
       12593.994       195.64056       15.711453       1
       12616.867       208.48801       16.850563       1
       12639.740       230.09115       15.936504       1
       12662.613      -1.2166362       0.0000000       1
       12685.486       212.78927       15.500016       1
       12708.359       203.37496       16.411056       1
       12731.232       228.70179       15.315195       1
       12754.105       198.50641       16.101731       1
       12776.978       209.17380       15.308746       1
       12799.851       230.38725       16.219767       1
       12822.724       200.54922       14.990665       1
       12845.597       215.16435       16.113003       1
       12868.470       218.02302       15.108299       1
       12891.343       222.56590       16.004372       1
       12914.216       217.65220       15.020627       1
       12937.089       232.07959       15.880087       1
       12959.962       192.26432       14.681757       1
       12982.835       201.30772       15.416877       1
       13005.708       223.01741       17.520143       1
       13028.580       221.31650       15.564691       1
       13051.453       236.89684       17.417235       1
       13074.326       226.34102       15.399481       1
       13097.199       210.94021       14.368486       1
       13120.072       248.58227       15.618548       1
       13142.945       221.25160       14.368724       1
       13165.818       216.05502       15.117476       1
       13188.691       216.20299       14.221846       1
       13211.564       218.65079       14.921600       1
       13234.437       183.89304       13.330134       1
       13257.310       193.26686       14.545198       1
       13280.183      -1.3289234       0.0000000       1
       13303.056       190.84789       14.487017       1
       13325.929       186.25526       13.661879       1
       13348.802       229.60714       14.904941       1
       13371.675       187.29202       13.554104       1
       13394.548       192.82115       14.442432       1
       13417.421       231.46792       13.827142       1
       13440.294       220.54256       14.519941       1
       13463.167       193.44744       13.331078       1
       13486.040       216.24764       14.387519       1
       13508.913       220.08112       13.457574       1
       13531.786       212.26877       14.187171       1
       13554.659       230.67440       13.073670       1
       13577.532       222.08265       14.311451       1
       13600.405       205.76764       13.335895       1
       13623.278       200.19063       14.094786       1
       13646.151       231.89249       13.582892       1
       13669.024       212.95770       14.280486       1
       13691.897       227.41678       13.544369       1
       13714.770       221.17014       14.299315       1
       13737.643       206.50138       13.343741       1
       13760.516       220.93114       14.352712       1
       13783.389       183.56126       13.127504       1
       13806.262       211.17182       14.129699       1
       13829.135       204.40225       13.320225       1
       13852.007       193.47933       13.810540       1
       13874.880       192.57124       13.201219       1
       13897.753       177.31057       13.753947       1
       13920.626       198.50403       13.187718       1
       13943.499       190.13510       13.713048       1
       13966.372       209.92415       13.147643       1
       13989.245       212.40845       13.971840       1
       14012.118       208.27005       13.188391       1
       14034.991       194.32691       13.650022       1
       14057.864       215.04886       12.944394       1
       14080.737       203.82862       13.585391       1
       14103.610       190.42812       12.766403       1
       14126.483       228.04975       13.618772       1
       14149.356       190.92186       12.726067       1
       14172.229       196.69535       13.519901       1
       14195.102       192.54785       12.686132       1
       14217.975       198.71000       13.383044       1
       14240.848       212.27738       12.808165       1
       14263.721       212.83862       13.480702       1
       14286.594       185.90285       12.461757       1
       14309.467       181.83871       13.043677       1
       14332.340       202.13772       12.569590       1
       14355.213       186.33103       13.013753       1
       14378.086       194.70004       12.395149       1
       14400.959       153.64192       12.781955       1
       14423.832       199.63930       12.376450       1
       14446.705       180.04548       13.038415       1
       14469.578       197.61513       12.326996       1
       14492.451       175.86753       12.951919       1
       14515.324       182.12338       12.275714       1
       14538.197       194.09576       13.097539       1
       14561.070       160.89824       12.060995       1
       14583.943       169.75658       12.881021       1
       14606.816       168.49789       12.130286       1
       14629.689       180.70573       12.898496       1
       14652.562       172.10544       12.204831       1
       14675.434       189.48020       13.030800       1
       14698.307       187.44107       12.301711       1
       14721.180       170.64941       12.804120       1
       14744.053       182.86712       12.297873       1
       14766.926       177.68118       12.990654       1
       14789.799       166.03007       12.115433       1
       14812.672       195.61667       13.073902       1
       14835.545       187.96848       12.175475       1
       14858.418       182.33019       12.955202       1
       14881.291       163.62613       11.960484       1
       14904.164       171.87980       12.701918       1
       14927.037       189.51717       12.077345       1
       14949.910       166.49474       12.487490       1
       14972.783       169.56202       11.774712       1
       14995.656       181.58909       12.651364       1
       15018.529       167.90996       11.816399       1
       15041.402       193.00828       12.437452       1
       15064.275       181.83739       12.004093       1
       15087.148       171.11010       13.428913       1
       15110.021       172.17401       13.402463       1
       15132.894       138.93413       13.041581       1
       15155.767       172.96190       13.456237       1
       15178.640       185.40173       13.442997       1
       15201.513       170.35822       13.257567       1
       15224.386       196.98599       13.562125       1
       15247.259       159.39763       13.055222       1
       15270.132       210.87590       13.573928       1
       15293.005       183.60904       13.440412       1
       15315.878       176.87262       12.762019       1
       15338.751       201.57236       13.597135       1
       15361.624       185.31973       13.227990       1
       15384.497       194.54419       13.580740       1
       15407.370       199.99688       13.495008       1
       15430.243       188.95210       13.597152       1
       15453.116       241.83392       14.022492       1
       15475.988       200.93451       13.672535       1
       15498.861       253.32397       13.988722       1
       15521.734       210.75104       13.771746       1
       15544.607       221.86964       13.877597       1
       15567.480       219.05637       13.875727       1
       15590.353       192.66736       13.559231       1
       15613.226       179.78356       13.565653       1
       15636.099       183.56198       13.465830       1
       15658.972       196.78890       13.495818       1
       15681.845       191.27393       13.570110       1
       15704.718       181.93376       13.437616       1
       15727.591       182.67688       13.335363       1
       15750.464       200.78772       13.274458       1
       15773.337       172.81429       13.248276       1
       15796.210       182.52804       13.398159       1
       15819.083       194.18350       13.356727       1
       15841.956       187.49451       13.371577       1
       15864.829       190.72620       13.364790       1
       15887.702       181.77658       13.340227       1
       15910.575       182.87787       13.449485       1
       15933.448       189.33503       13.595097       1
       15956.321       174.92860       13.163641       1
       15979.194       177.57296       13.444704       1
       16002.067       177.79198       13.303656       1
       16024.940       178.22297       13.453632       1
       16047.813       175.98707       13.281917       1
       16070.686       181.28553       13.385911       1
       16093.559       185.18507       13.450956       1
       16116.432       185.49964       13.602085       1
       16139.305       180.11453       13.149877       1
       16162.178       175.22640       13.509739       1
       16185.051       169.41157       13.448217       1
       16207.924       169.17115       13.543317       1
       16230.797       166.28285       13.560863       1
       16253.670       200.23629       13.851210       1
       16276.543       154.55837       13.524368       1
       16299.415       199.02024       13.932209       1
       16322.288       183.04708       13.887594       1
       16345.161       179.58607       13.824515       1
       16368.034       158.69265       13.684201       1
       16390.907       187.14513       14.071156       1
       16413.780       149.01226       13.587072       1
       16436.653       170.26072       13.724162       1
       16459.526       162.68177       13.881146       1
       16482.399       173.09720       14.059484       1
       16505.272       164.78587       14.279343       1
       16528.145       186.59043       15.943743       1
       16551.018       170.32846       14.978386       1
       16573.891       193.69237       17.076580       1
       16596.764       176.92257       16.493912       1
       16619.637       163.26355       17.592480       1
       16642.510       151.08657       18.712468       1
       16665.383       163.86548       20.732168       1
       16688.256       208.22292       23.324592       1
       16711.129       149.72297       25.300942       1
       16734.002       148.84762       28.295032       1
       16756.875       197.74876       32.452212       0
       16779.748       129.68757       36.113287       0
       16802.621       187.67002       41.397767       0
       16825.494       219.93429       46.102835       0
       16848.367       188.42267       52.899799       0
       16871.240       126.42855       57.881585       0
       16894.113       132.04189       64.465171       0
       16916.986       187.56243       72.237530       0
       16939.859       251.41207       81.899325       0
       16962.732       141.25316       89.407960       0
       16985.605       213.47924       100.17309       0
       17008.478       119.05540       109.99792       0
       17031.351       82.931575       121.96897       0
       17054.224       468.15108       137.38343       0
       17077.097      -231.83602       147.67044       0
       17099.970      -94.769574       165.83373       0
       17122.842      -14.771824       193.39104       0
       17145.715       142.57108       223.21679       0
       17168.588      -197.01897       254.48313       0
       17191.461       84.493397       294.65740       0
       17214.334       314.48063       334.69037       0
       17237.207      -64.754442       371.75274       0
       17260.080       571.49034       423.74934       0
       17282.953       67.928628       461.77665       0
       17305.826      -138.06506       501.62460       0
