#WAVELENGTH FLUX ERROR MASK
       7485.3934       7767.4801       23092.648       0
       7497.3269      -28793.153       23554.471       0
       7509.2604       5029.1099       16927.098       0
       7521.1938       5325.1930       17022.936       0
       7533.1273      -2610.7422       11586.087       0
       7545.0607      -8886.5048       11836.329       0
       7556.9942       3440.5801       7584.5105       0
       7568.9277       4357.1830       7578.9829       0
       7580.8611      -1166.3360       5071.7749       0
       7592.7946      -4192.3054       6496.7955       0
       7604.7280       362.65943       4125.8363       0
       7616.6615       1196.1368       4113.0686       0
       7628.5950       773.23874       2430.8571       0
       7640.5284       98.035877       3075.8593       0
       7652.4619       408.30625       1811.0789       0
       7664.3953       974.15211       2277.9089       0
       7676.3288      -704.50057       1279.8127       0
       7688.2623       171.24762       1349.8340       0
       7700.1957      -314.67109       900.14159       0
       7712.1292       199.30006       969.07204       0
       7724.0627      -678.97777       679.42333       0
       7735.9961       337.47971       768.08277       0
       7747.9296      -43.381765       592.94863       0
       7759.8630       110.26806       641.18221       0
       7771.7965      -62.260218       473.08182       0
       7783.7300      -322.02451       543.62273       0
       7795.6634       305.55519       400.69883       0
       7807.5969       65.785170       453.54752       0
       7819.5303       137.48986       326.88849       0
       7831.4638      -39.720399       366.07439       0
       7843.3973      -228.77911       262.58291       0
       7855.3307       35.055828       299.25347       0
       7867.2642       128.38426       218.35492       0
       7879.1976       92.447059       251.23481       0
       7891.1311       142.04372       186.74160       0
       7903.0646       102.51677       219.22051       0
       7914.9980      -22.516997       164.43938       0
       7926.9315       3.9365751       195.17209       0
       7938.8649      -74.838861       148.97352       0
       7950.7984       26.359531       178.66318       0
       7962.7319       89.372631       136.90021       0
       7974.6653      -13.162752       163.89322       0
       7986.5988      -103.61694       125.58820       0
       7998.5322       102.37170       153.74636       0
       8010.4657      -11.879660       117.70216       0
       8022.3992       63.720287       143.99737       0
       8034.3326      -6.3815874       112.33616       0
       8046.2661       52.705913       136.83116       0
       8058.1995       142.18065       108.07340       0
       8070.1330      -92.866994       130.99441       0
       8082.0665       63.805470       104.47639       0
       8093.9999       72.602857       128.25516       0
       8105.9334       25.475948       100.69639       0
       8117.8668       116.79727       123.76960       0
       8129.8003       44.120816       97.172608       0
       8141.7338       13.488423       119.08169       0
       8153.6672       56.200076       94.205828       1
       8165.6007       3.1938880       115.18777       1
       8177.5342       55.916528       90.449705       1
       8189.4676      -102.20056       109.66096       1
       8201.4011       75.445347       87.737257       1
       8213.3345      -51.496419       106.50685       1
       8225.2680       47.629811       83.572131       1
       8237.2015       5.6658070       101.33461       1
       8249.1349      -6.8143807       78.742477       1
       8261.0684       33.466326       96.881740       1
       8273.0018       39.211994       75.506437       1
       8284.9353       21.708336       92.070873       1
       8296.8688       54.291370       72.123751       1
       8308.8022       13.700629       88.056665       1
       8320.7357       37.008090       69.074613       1
       8332.6691      -9.3784961       85.015326       1
       8344.6026      -23.299719       66.799143       1
       8356.5361       45.345543       83.296068       1
       8368.4695       26.426716       65.276554       1
       8380.4030       31.183276       80.815858       1
       8392.3364       19.635936       76.584459       1
       8404.2699       71.334712       79.111728       1
       8416.2034       15.553637       61.518026       1
       8428.1368       26.638858       76.447459       1
       8440.0703       57.520219       64.062502       1
       8452.0037       15.988691       74.115275       1
       8463.9372       57.925180       58.332871       1
       8475.8707       4.7926840       71.698118       1
       8487.8041       11.202497       56.593608       1
       8499.7376       63.196990       70.445422       1
       8511.6710       26.466809       55.300879       1
       8523.6045      -20.917520       68.081202       1
       8535.5380       23.020879       54.215984       1
       8547.4714      -19.483453       66.854448       1
       8559.4049       20.366220       53.135822       1
       8571.3383       64.578868       66.925626       1
       8583.2718       28.143153       52.926485       1
       8595.2053       3.4850424       65.960988       1
       8607.1387       21.099626       52.701749       1
       8619.0722       81.366222       66.291411       1
       8631.0057       45.917891       52.459512       1
       8642.9391       80.548419       65.529669       1
       8654.8726       86.277439       52.223637       1
       8666.8060       52.090495       64.435114       1
       8678.7395       41.914338       50.606391       1
       8690.6730       30.678955       72.738745       1
       8702.6064       62.471066       49.182843       1
       8714.5399       38.158906       71.023370       1
       8726.4733       5.7294668       48.037068       1
       8738.4068      -8.6487991       62.786656       1
       8750.3403       43.449696       45.639308       1
       8762.2737       21.515191       56.240852       1
       8774.2072       51.527857       44.555044       1
       8786.1406       14.879940       55.539493       1
       8798.0741       59.782197       44.093661       1
       8810.0076       11.866550       54.367337       1
       8821.9410      -7.9317368       42.712161       1
       8833.8745       38.785920       53.267248       1
       8845.8079       29.899382       41.965888       1
       8857.7414       87.890964       52.763494       1
       8869.6749       22.921197       41.276905       1
       8881.6083       14.597546       50.891950       1
       8893.5418       27.723623       40.607074       1
       8905.4752       46.083990       55.372644       1
       8917.4087       38.867283       39.986975       1
       8929.3422      -5.9520699       54.171149       1
       8941.2756       13.371904       39.239853       1
       8953.2091       42.579727       53.562119       1
       8965.1425       43.766764       38.685828       1
       8977.0760       36.114774       52.163172       1
       8989.0095       39.519174       37.968552       1
       9000.9429       34.947340       46.849576       1
       9012.8764       5.4998531       37.080755       1
       9024.8098       20.408486       46.695202       1
       9036.7433       38.813513       37.193892       1
       9048.6768       4.2116101       46.212047       1
       9060.6102       41.880399       37.021904       1
       9072.5437      -1.9235723       45.770540       1
       9084.4772       21.326430       36.371913       1
       9096.4106       41.421945       45.192598       1
       9108.3441       44.801440       35.868434       1
       9120.2775       23.430338       44.341481       1
       9132.2110       39.348116       35.019549       1
       9144.1445       32.529860       43.439696       1
       9156.0779       17.844574       34.168447       1
       9168.0114       23.805027       42.439819       1
       9179.9448       22.383553       35.568506       1
       9191.8783       4.4583298       41.653727       1
       9203.8118       5.5385594       32.964143       1
       9215.7452       53.725390       41.279776       1
       9227.6787       75.133822       32.926286       1
       9239.6121       47.293940       40.539940       1
       9251.5456       23.298422       32.074906       1
       9263.4791       17.189871       39.961139       1
       9275.4125       55.455944       31.976743       1
       9287.3460       59.599024       39.897477       1
       9299.2794       43.224333       31.503605       1
       9311.2129       61.869181       39.405884       1
       9323.1464       25.097642       31.114485       1
       9335.0798       33.691803       38.525598       1
       9347.0133       41.358551       30.907619       1
       9358.9467       43.484821       38.363918       1
       9370.8802     -0.49966494       30.342975       1
       9382.8137       29.494821       38.021852       1
       9394.7471       13.442538       30.183354       1
       9406.6806       2.5412291       37.286137       1
       9418.6140       20.118841       37.489885       1
       9430.5475       67.353122       37.378428       1
       9442.4810       20.969128       29.408210       1
       9454.4144       19.645420       36.559877       1
       9466.3479       2.7045059       28.866396       1
       9478.2813       50.981652       36.163470       1
       9490.2148       23.169012       28.638102       1
       9502.1483      -1.6309750       35.490528       1
       9514.0817      -10.229279       28.090464       1
       9526.0152       52.930322       35.598915       1
       9537.9487       21.318440       27.999368       1
       9549.8821       38.060471       35.148610       1
       9561.8156      -11.018129       27.397650       1
       9573.7490       22.029275       34.396089       1
       9585.6825       33.845868       29.454722       1
       9597.6160       1.5921753       34.005438       1
       9609.5494       18.024788       28.879569       1
       9621.4829       14.417029       33.763850       1
       9633.4163       50.568406       27.111961       1
       9645.3498       5.8116601       33.208827       1
       9657.2833       9.1141929       28.080006       1
       9669.2167      -13.858426       32.806371       1
       9681.1502       16.473222       26.490106       1
       9693.0836       6.1961321       32.791946       1
       9705.0171       17.082847       26.122267       1
       9716.9506       49.357551       33.102059       1
       9728.8840       13.042991       25.887483       1
       9740.8175       20.012021       32.328842       1
       9752.7509       39.022736       25.780768       1
       9764.6844       12.908691       32.065678       1
       9776.6179       56.054750       25.745176       1
       9788.5513       30.374639       35.180114       1
       9800.4848       29.711207       25.323928       1
       9812.4182       26.569792       31.726596       1
       9824.3517       38.441641       25.335433       1
       9836.2852       25.240415       31.606182       1
       9848.2186       23.886432       25.020339       1
       9860.1521       11.232889       31.297534       1
       9872.0855       13.239386       24.890937       1
       9884.0190       32.261269       32.129066       1
       9895.9525       24.772750       24.859212       1
       9907.8859       20.058646       31.180668       1
       9919.8194       17.844884       24.662194       1
       9931.7528       11.257623       30.695958       1
       9943.6863       7.7094186       25.809554       1
       9955.6198       27.888092       30.739988       1
       9967.5532       29.255325       24.343577       1
       9979.4867       19.025679       30.145928       1
       9991.4202       17.196605       23.996773       1
       10003.354       42.260431       30.127274       1
       10015.287       24.762481       25.163408       1
       10027.221       30.150653       29.625295       1
       10039.154       30.947778       23.514265       1
       10051.087       36.612412       29.340270       1
       10063.021       22.542961       23.300015       1
       10074.954       24.120365       29.318895       1
       10086.888       26.468809       29.721722       1
       10098.821       43.697252       29.384772       1
       10110.755     -0.83123778       23.228833       1
       10122.688       19.280210       29.167914       1
       10134.622       19.943801       23.217409       1
       10146.555       19.362447       29.032731       1
       10158.489       20.621453       23.110369       1
       10170.422       33.196829       28.914541       1
       10182.356       28.829783       22.994051       1
       10194.289       35.799454       28.873523       1
       10206.222       24.548091       22.725341       1
       10218.156       21.101225       28.321369       1
       10230.089       17.429637       22.530296       1
       10242.023       23.692879       28.085388       1
       10253.956       25.703114       22.331979       1
       10265.890       4.5910599       27.600238       1
       10277.823       39.852305       22.223449       1
       10289.757       17.100781       27.193475       1
       10301.690       10.323714       21.835261       1
       10313.624       30.627657       27.151528       1
       10325.557       41.021618       21.802161       1
       10337.491      -4.6501076       26.782475       1
       10349.424       14.844108       21.502334       1
       10361.357       46.623289       27.218237       1
       10373.291       22.611866       21.516754       1
       10385.224       20.855367       26.888069       1
       10397.158       12.462654       27.171925       1
       10409.091      -4.5364655       26.689483       1
       10421.025       20.636101       21.433224       1
       10432.958       5.7095035       26.521679       1
       10444.892       19.029424       21.299387       1
       10456.825       22.038969       26.661610       1
       10468.759       11.977559       21.240876       1
       10480.692       13.136883       26.324921       1
       10492.625       15.766406       21.217227       1
       10504.559       11.289703       26.487001       1
       10516.492       8.2450306       21.232022       1
       10528.426       28.932652       26.525626       1
       10540.359       25.362208       21.217120       1
       10552.293       7.9631923       26.372011       1
       10564.226      -6.3233284       20.985725       1
       10576.160       32.473098       26.573474       1
       10588.093       26.829480       21.222004       1
       10600.027      -3.3276247       26.115686       1
       10611.960       23.035989       20.969842       1
       10623.894       1.4281023       25.994972       1
       10635.827       32.075807       20.891998       1
       10647.760       26.373377       25.959215       1
       10659.694       5.2425868       20.441513       1
       10671.627       39.244311       25.819834       1
       10683.561       9.9511616       20.282515       1
       10695.494       26.841536       25.544409       1
       10707.428       7.6086575       20.154366       1
       10719.361       5.2882967       25.207602       1
       10731.295       17.420238       21.756655       1
       10743.228       24.907801       25.419176       1
       10755.162       4.3922888       21.504485       1
       10767.095       17.445705       25.233360       1
       10779.029       4.3591150       20.106688       1
       10790.962       38.164576       25.327186       1
       10802.895     -0.27840329       20.026700       1
       10814.829       11.856580       22.224514       1
       10826.762       30.001798       20.128825       1
       10838.696       16.951548       25.118727       1
       10850.629       32.776940       20.130518       1
       10862.563       28.469768       25.162241       1
       10874.496       34.243397       19.962103       1
       10886.430       21.601476       24.857488       1
       10898.363       16.474579       19.639378       1
       10910.297       40.538006       24.907030       1
       10922.230       19.892221       19.764727       1
       10934.164       5.7514722       24.591840       1
       10946.097       20.149455       19.726779       1
       10958.030       6.1560943       25.435403       1
       10969.964       3.5126850       19.579098       1
       10981.897       13.712943       25.426651       1
       10993.831      -5.9306331       23.573326       1
       11005.764      -1.2053823       21.721624       1
       11017.698       21.288587       19.757731       1
       11029.631       4.5413975       27.035253       1
       11041.565       7.1671971       19.606212       1
       11053.498      -2.9863543       21.001419       1
       11065.432       5.6032238       20.695739       1
       11077.365       9.2871510       24.552309       1
       11089.299       27.619974       19.589050       1
       11101.232       30.370626       24.626866       1
       11113.165      -5.0478563       19.306743       1
       11125.099       6.2994913       24.397582       1
       11137.032       13.910125       24.655053       1
       11148.966       27.774297       24.626179       1
       11160.899       17.862994       19.613190       1
       11172.833       21.037149       24.593792       1
       11184.766       9.6815239       20.678767       1
       11196.700       5.7274616       24.398573       1
       11208.633       3.1859467       19.455064       0
       11220.567       3.3194658       24.354484       0
       11232.500       7.0236226       19.499061       0
       11244.434       23.062700       24.341835       0
       11256.367       10.351854       19.502215       0
       11268.300       1.9122407       24.372798       0
       11280.234       20.550203       19.582707       0
       11292.167      -1.0063215       24.376144       0
       11304.101       5.9725433       19.446203       0
       11316.034       16.994899       24.415156       0
       11327.968       30.779961       19.661896       0
       11339.901       18.255527       24.533367       0
       11351.835       4.9927077       19.836128       0
       11363.768       5.2129929       25.325022       0
       11375.702       12.813781       20.899062       0
       11387.635      -7.7077734       27.250652       0
       11399.568       26.732715       23.321986       0
       11411.502       1.7468551       31.101438       0
       11423.435       16.346585       27.164447       0
       11435.369       12.493672       44.055594       0
       11447.302       21.601239       33.469564       0
       11459.236      -8.7011593       55.490999       0
       11471.169       23.854963       42.897873       0
       11483.103      -10.332183       60.324814       0
       11495.036      -42.888044       54.131500       0
       11506.970       4.6687967       76.154398       0
       11518.903       30.434227       67.637982       0
       11530.837       43.635186       92.655619       0
       11542.770      -12.360176       82.247085       0
       11554.703      -84.752995       113.92033       0
       11566.637       2.5909250       104.48196       0
       11578.570       91.525972       152.49731       0
       11590.504      -136.69990       143.68390       0
       11602.437       98.261131       217.06689       0
       11614.371      -53.868580       212.93916       0
       11626.304      -154.28623       328.22048       0
       11638.238      -63.673473       324.82955       0
       11650.171      -326.91392       545.72940       0
       11662.105       55.590818       478.30074       0
       11674.038       202.29425       718.37003       0
       11685.972       344.16877       707.40411       0
       11697.905      -1268.2363       1048.5053       0
       11709.838      -1002.8544       1124.4718       0
       11721.772      -1387.3607       1762.1240       0
       11733.705       109.68566       1846.7885       0
       11745.639      -909.03760       2533.2117       0
       11757.572      -129.49444       3050.6572       0
       11769.506      -1758.1992       4959.1916       0
