#WAVELENGTH FLUX ERROR MASK
       7511.8566      -9040.7433       15487.290       0
       7524.4875       5688.6588       10645.202       0
       7537.1184      -8597.0432       11433.067       0
       7549.7492       762.60840       7076.4058       0
       7562.3801       4223.4287       6920.1598       0
       7575.0110      -1617.9502       4323.5882       0
       7587.6418       149.50225       4323.0333       0
       7600.2727       2934.5656       2868.5900       0
       7612.9036       1561.8809       2990.5149       0
       7625.5344       1477.3984       2053.5522       0
       7638.1653      -624.19687       2156.0557       0
       7650.7962       1162.4748       1515.2656       0
       7663.4270       439.16118       1575.1883       0
       7676.0579       805.93799       1057.6835       0
       7688.6888       688.23502       1088.0621       0
       7701.3196       652.48176       732.48061       0
       7713.9505       302.79786       772.66347       0
       7726.5814       59.692087       541.48461       0
       7739.2123      -139.40071       595.63871       0
       7751.8431       67.956785       441.27796       0
       7764.4740      -37.935127       502.65399       0
       7777.1049       174.43862       374.40229       0
       7789.7357       368.15837       426.24271       0
       7802.3666       26.982578       309.36808       0
       7814.9975       406.35138       346.96429       0
       7827.6283       175.10999       247.26055       0
       7840.2592       56.958097       275.84693       0
       7852.8901       174.13255       200.01079       0
       7865.5209       182.17749       228.03386       0
       7878.1518       238.63875       166.56536       0
       7890.7827       118.38186       190.63602       0
       7903.4135       107.09807       143.08515       0
       7916.0444       67.656533       165.98946       0
       7928.6753      -55.346258       125.94533       0
       7941.3061       136.55284       151.12243       0
       7953.9370       57.459689       115.10026       0
       7966.5679       55.482965       136.59904       0
       7979.1987       16.928910       105.27636       0
       7991.8296      -27.381450       124.18348       0
       8004.4605       93.775247       104.95835       0
       8017.0913       85.825792       118.06989       0
       8029.7222      -14.679863       99.860067       0
       8042.3531       83.913514       112.53121       0
       8054.9840       144.45570       90.832674       0
       8067.6148       59.728563       107.72681       0
       8080.2457       15.603609       87.606348       0
       8092.8766       8.6094273       103.49374       0
       8105.5074       54.227145       82.002680       0
       8118.1383       93.442603       100.47061       0
       8130.7692      -71.918703       78.192970       0
       8143.4000       86.594246       85.454017       0
       8156.0309      -34.500023       75.706805       1
       8168.6618       21.656250       93.883288       1
       8181.2926       6.8291169       73.403368       1
       8193.9235      -26.454082       89.038740       1
       8206.5544      -14.718756       70.336888       1
       8219.1852       76.855316       85.779515       1
       8231.8161       48.198130       67.425286       1
       8244.4470       119.52230       81.817957       1
       8257.0778       70.805205       64.899626       1
       8269.7087      -24.065637       67.779187       1
       8282.3396       49.680543       61.362334       1
       8294.9704       90.291642       73.989920       1
       8307.6013       42.446113       57.905103       1
       8320.2322       69.944327       70.706504       1
       8332.8631       4.3468745       55.248942       1
       8345.4939       43.539225       68.188341       1
       8358.1248       26.097073       54.020995       1
       8370.7557       35.547286       66.245932       1
       8383.3865       54.965795       52.592266       1
       8396.0174       77.142027       64.554571       1
       8408.6483       62.409598       51.448269       1
       8421.2791      -2.0110258       62.227870       1
       8433.9100       36.112625       49.568601       1
       8446.5409       60.462110       60.789455       1
       8459.1717       2.6978438       47.507354       1
       8471.8026       46.687975       58.653070       1
       8484.4335       39.020079       46.310460       1
       8497.0643       53.242941       56.861164       1
       8509.6952       57.137430       45.345898       1
       8522.3261       65.759272       55.983561       1
       8534.9569      -19.948059       52.373754       1
       8547.5878       48.241745       54.569392       1
       8560.2187       42.963489       43.853952       1
       8572.8495       42.119542       54.253087       1
       8585.4804      -3.6258986       42.818633       1
       8598.1113       32.361342       54.957903       1
       8610.7421       30.906393       42.839560       1
       8623.3730       31.592998       53.099078       1
       8636.0039       31.119594       42.628019       1
       8648.6348       34.196454       52.551290       1
       8661.2656       40.899679       42.169600       1
       8673.8965       64.162302       52.263217       1
       8686.5274       32.147597       41.097843       1
       8699.1582       50.007778       50.570341       1
       8711.7891       17.761642       39.473872       1
       8724.4200       51.461955       48.641416       1
       8737.0508       57.340866       38.295814       1
       8749.6817       64.984398       46.913242       1
       8762.3126       71.053827       37.290796       1
       8774.9434       31.712547       45.464296       1
       8787.5743       35.846530       36.240708       1
       8800.2052       51.561295       45.302251       1
       8812.8360       31.121645       35.530386       1
       8825.4669       7.5970995       43.598727       1
       8838.0978       21.257311       34.709904       1
       8850.7286       67.813000       43.229910       1
       8863.3595       25.981232       33.927141       1
       8875.9904       36.088866       41.815014       1
       8888.6212     -0.85032379       33.041526       1
       8901.2521       30.206044       41.000668       1
       8913.8830       46.820972       32.856690       1
       8926.5139       29.834326       42.088691       1
       8939.1447       10.556246       32.154266       1
       8951.7756       80.842086       40.349794       1
       8964.4065       32.042016       31.667336       1
       8977.0373       41.920478       33.323729       1
       8989.6682       29.657508       30.822605       1
       9002.2991       30.291004       38.224978       1
       9014.9299       23.733834       30.387864       1
       9027.5608       58.106934       37.846200       1
       9040.1917       12.635668       30.072326       1
       9052.8225       62.365514       37.581784       1
       9065.4534       19.881062       29.947973       1
       9078.0843       37.939725       37.196636       1
       9090.7151       15.331555       29.630836       1
       9103.3460       14.551988       36.392681       1
       9115.9769       42.730360       29.258741       1
       9128.6077       21.068198       35.698788       1
       9141.2386       55.803474       29.275378       1
       9153.8695       29.539025       35.065106       1
       9166.5003       33.757227       28.487406       1
       9179.1312       31.922546       34.436458       1
       9191.7621       29.522669       34.373228       1
       9204.3929       46.782827       33.791007       1
       9217.0238       33.025233       33.586261       1
       9229.6547       48.490671       37.330603       1
       9242.2856       35.921313       26.420825       1
       9254.9164       6.7051722       32.385526       1
       9267.5473       34.361426       26.166501       1
       9280.1782      -14.593259       31.820636       1
       9292.8090       25.537986       25.808658       1
       9305.4399       5.4050295       31.614817       1
       9318.0708       48.002495       25.647165       1
       9330.7016       34.799498       31.424043       1
       9343.3325       31.664114       25.231739       1
       9355.9634       14.844117       31.131913       1
       9368.5942       32.810536       25.066435       1
       9381.2251       7.8921545       26.231597       1
       9393.8560       42.761717       24.882574       1
       9406.4868       5.1463112       30.483038       1
       9419.1177       34.803143       24.599942       1
       9431.7486       27.760868       30.280871       1
       9444.3794       21.479150       24.303630       1
       9457.0103       53.174610       30.115860       1
       9469.6412       19.199761       23.681659       1
       9482.2720       27.968482       30.034960       1
       9494.9029       14.721222       23.534587       1
       9507.5338       39.894881       29.874523       1
       9520.1647       12.417681       28.936807       1
       9532.7955      0.92168574       28.534309       1
       9545.4264       26.890306       23.064547       1
       9558.0573       39.667186       28.944774       1
       9570.6881       34.510829       22.793548       1
       9583.3190       23.072282       28.104407       1
       9595.9499       34.382636       22.601332       1
       9608.5807       34.300469       27.993490       1
       9621.2116       45.511850       28.322473       1
       9633.8425       29.309177       27.480022       1
       9646.4733       27.408565       22.072586       1
       9659.1042       28.801705       27.335024       1
       9671.7351       21.180583       27.179998       1
       9684.3659       32.960328       27.138059       1
       9696.9968       21.258923       21.671853       1
       9709.6277       32.332545       27.017175       1
       9722.2585       20.406642       21.503201       1
       9734.8894       34.539030       26.687005       1
       9747.5203       8.0486645       21.225415       1
       9760.1511       37.915875       26.559987       1
       9772.7820       45.420969       21.896133       1
       9785.4129       42.209220       26.230085       1
       9798.0437       25.173600       20.984765       1
       9810.6746       15.204580       25.753251       1
       9823.3055       8.4134895       20.665184       1
       9835.9364       8.0827557       25.554010       1
       9848.5672       48.467046       20.802613       1
       9861.1981      -1.4569806       25.468941       1
       9873.8290       22.618803       20.523511       1
       9886.4598       32.728745       25.493821       1
       9899.0907       25.057490       20.765530       1
       9911.7216       34.144391       25.506377       1
       9924.3524       42.914424       20.476611       1
       9936.9833       21.548401       25.335620       1
       9949.6142       23.725552       20.283534       1
       9962.2450       18.535879       25.145181       1
       9974.8759       30.594781       20.248551       1
       9987.5068       33.089849       25.030818       1
       10000.138       26.582861       20.111849       1
       10012.769       19.603405       24.634449       1
       10025.399       34.830416       24.744701       1
       10038.030       39.299269       24.479563       1
       10050.661       30.170754       19.410070       1
       10063.292       6.9929131       23.805867       1
       10075.923       26.065170       19.372036       1
       10088.554       52.044031       23.923026       1
       10101.185       17.703802       23.767763       1
       10113.815       13.057402       23.681901       1
       10126.446       36.123717       19.274242       1
       10139.077       8.1616400       23.622365       1
       10151.708       37.040946       19.253287       1
       10164.339       21.358587       23.683051       1
       10176.970       22.870850       19.012415       1
       10189.601       22.284252       24.237584       1
       10202.232       18.706429       18.923661       1
       10214.862       18.299453       20.730471       1
       10227.493       14.900971       18.703223       1
       10240.124       51.364663       23.416904       1
       10252.755       14.079527       18.566598       1
       10265.386       58.878843       23.382305       1
       10278.017       17.198698       18.477932       1
       10290.648       27.846292       22.855574       1
       10303.278       22.228869       21.793465       1
       10315.909       28.193513       22.563664       1
       10328.540       16.245730       18.062837       1
       10341.171       27.558056       22.411165       1
       10353.802       37.315799       18.003984       1
       10366.433       20.320796       22.062656       1
       10379.064       37.963578       17.847260       1
       10391.695       46.426987       22.141453       1
       10404.325       33.508025       17.769908       1
       10416.956       24.376834       21.893646       1
       10429.587       23.683518       17.611249       1
       10442.218       21.024510       22.500108       1
       10454.849       12.679794       17.554613       1
       10467.480       24.647581       21.827395       1
       10480.111       29.148995       17.629840       1
       10492.741       28.677623       21.739593       1
       10505.372       15.814401       17.392035       1
       10518.003       25.267714       21.675966       1
       10530.634       8.3517132       17.219705       1
       10543.265       28.770795       21.575946       1
       10555.896       39.561252       17.522637       1
       10568.527       21.132286       21.515595       1
       10581.158       9.8551978       17.307445       1
       10593.788       41.587909       21.839518       1
       10606.419       44.498124       17.523253       1
       10619.050       35.133461       21.719956       1
       10631.681       25.436940       17.354640       1
       10644.312       18.962516       21.483467       1
       10656.943       19.534147       17.317673       1
       10669.574       27.179092       21.462639       1
       10682.205       23.845772       17.216981       1
       10694.835       38.630446       21.439237       1
       10707.466       27.049328       17.031455       1
       10720.097       46.710806       21.714295       1
       10732.728       32.957900       16.958104       1
       10745.359       12.459113       20.682907       1
       10757.990       15.829488       17.766176       1
       10770.621       6.1967593       20.400322       1
       10783.251       29.869629       16.746273       1
       10795.882       31.748459       9070545.8       1
       10808.513       36.371830       16.734669       1
       10821.144       31.389072       20.737292       1
       10833.775       17.839847       16.573540       1
       10846.406       30.573093       20.644129       1
       10859.037       33.083892       16.607784       1
       10871.668       20.966047       17.482507       1
       10884.298       29.142364       16.581381       1
       10896.929       15.469991       20.398814       1
       10909.560       25.660369       16.401629       1
       10922.191       15.617346       20.212790       1
       10934.822       29.277027       16.447128       1
       10947.453       33.627547       20.338480       1
       10960.084       34.312913       16.342426       1
       10972.714       36.038076       20.235624       1
       10985.345       24.239707       17.240409       1
       10997.976       22.828236       20.340329       1
       11010.607       23.331822       16.100646       1
       11023.238       18.691964       20.049137       1
       11035.869       23.851953       16.125233       1
       11048.500       19.620249       20.011430       1
       11061.131       7.9995512       16.033622       1
       11073.761       19.411320       20.012762       1
       11086.392       29.318011       16.141788       1
       11099.023       62.963423       20.575382       1
       11111.654       29.120148       16.119125       1
       11124.285       35.966639       20.035722       1
       11136.916       14.537535       15.997608       1
       11149.547       30.221371       20.037801       1
       11162.178       24.186643       16.006422       1
       11174.808       5.2592103       19.684911       1
       11187.439       31.052419       16.034384       1
       11200.070       29.453012       19.920882       0
       11212.701       10.337242       15.885359       0
       11225.332       9.3889422       20.629033       0
       11237.963       17.594048       15.986623       0
       11250.594       27.782884       20.235519       0
       11263.224       24.338021       16.257900       0
       11275.855       39.211894       20.197684       0
       11288.486       28.917028       16.012951       0
       11301.117       43.695077       20.112387       0
       11313.748       16.699122       15.892200       0
       11326.379       3.8387714       19.678616       0
       11339.010       18.230002       15.914426       0
       11351.641       31.458238       20.032958       0
       11364.271       27.168746       15.949238       0
       11376.902       16.198062       19.858628       0
       11389.533       28.145858       15.946506       0
       11402.164       16.519152       19.736204       0
       11414.795       21.739709       15.813304       0
       11427.426       27.462667       19.857927       0
       11440.057       22.739019       16.062439       0
       11452.687       11.015224       19.961590       0
       11465.318       1.9402204       17.534645       0
       11477.949       26.497274       21.623773       0
       11490.580       1.2710217       18.211988       0
       11503.211       17.083605       24.300678       0
       11515.842       13.236835       21.191744       0
       11528.473       7.9840177       28.953875       0
       11541.104      0.80260149       26.024268       0
       11553.734       10.173231       36.125643       0
       11566.365       3.8404742       33.136635       0
       11578.996       20.072352       46.632632       0
       11591.627      -1.1748303       42.163951       0
       11604.258      -7.5139457       58.981023       0
       11616.889      -6.5339241       52.451776       0
       11629.520       4.2998647       72.434293       0
       11642.150      -5.4281760       63.927620       0
       11654.781      -36.995216       88.235663       0
       11667.412      -22.825594       82.326537       0
       11680.043      -29.755786       115.64774       0
       11692.674       48.244582       110.43003       0
       11705.305      -103.46730       163.03400       0
       11717.936      -53.615531       161.90604       0
       11730.567      -164.86159       247.18036       0
       11743.197       116.85245       247.29210       0
       11755.828      -37.691337       376.95420       0
       11768.459      -267.50119       361.71241       0
       11781.090      -347.84255       549.74413       0
       11793.721      -118.90327       527.34731       0
       11806.352      -405.12785       819.81273       0
       11818.983      -874.61249       824.54717       0
       11831.614       1038.3083       1352.0474       0
       11844.244       213.30630       1389.0367       0
       11856.875       1139.1441       2256.1085       0
       11869.506      -2080.1169       2329.2299       0
       11882.137       10.905992       3534.4714       0
       11894.768      -457.17049       3099.1918       0
       11907.399      -950.25802       3954.4342       0
       11920.030      -189.50447       3141.4055       0
       11932.660       709.36783       3805.0854       0
       11945.291      -1264.8779       2990.9140       0
       11957.922       813.23769       3834.8607       0
       11970.553      -1134.2892       3202.3870       0
       11983.184      -2770.4612       4388.9158       0
       11995.815      -1780.4104       4075.2423       0
       12008.446      -162.24564       5923.4611       0
       12021.077      -5029.8745       5613.2835       0
       12033.707       4363.3072       8315.6951       0
       12046.338      -5087.9393       7554.8890       0
