#WAVELENGTH FLUX ERROR MASK
       10258.438       231.46038       1972.3814       0
       10281.772      -670.91655       1638.1446       0
       10305.105       169.29086       1076.2837       0
       10328.438       2700.2305       1291.3918       0
       10351.772       324.74587       1182.0575       0
       10375.105       1815.3797       1063.4919       0
       10398.438       604.06883       978.66397       0
       10421.772      -35.680959       859.51940       0
       10445.105      -203.82277       771.42029       0
       10468.438      -764.20623       633.37807       0
       10491.772      -461.81373       555.35012       0
       10515.105       601.39402       463.24344       0
       10538.438       726.97615       404.63313       0
       10561.772       272.32319       338.89863       0
       10585.105      -1.9056829       304.45286       0
       10608.438       230.49312       267.04139       0
       10631.772       185.52573       247.00019       0
       10655.105       176.22105       216.33211       0
       10678.438       144.58056       193.64039       0
       10701.772      -73.931865       160.94021       0
       10725.105       58.021654       140.44685       0
       10748.438      -47.547394       112.93947       0
       10771.772       51.665750       96.425172       0
       10795.105       105.00333       79.428723       0
       10818.439       37.840941       69.307900       0
       10841.772       175.54398       60.181696       0
       10865.105       30.789156       54.098262       0
       10888.439       68.913023       56.057861       0
       10911.772       21.404491       45.291539       0
       10935.105       98.195630       41.814375       0
       10958.439       38.474616       39.757734       0
       10981.772       15.601625       35.889573       0
       11005.105       41.265611       34.623375       1
       11028.439       30.188315       31.300536       1
       11051.772       41.231799       30.276803       1
       11075.105       32.109076       27.618819       1
       11098.439       49.047453       27.113129       1
       11121.772       40.361329       25.498340       1
       11145.105       21.544112       24.941061       1
       11168.439       51.247110       24.138197       1
       11191.772       40.600686       24.129831       1
       11215.105       34.810269       23.273453       1
       11238.439       17.941449       23.444613       1
       11261.772       36.194373       22.753949       1
       11285.105       41.487033       23.051027       1
       11308.439       34.399542       22.305783       1
       11331.772       48.027357       22.810040       1
       11355.106       16.248146       21.616855       1
       11378.439       20.440569       21.910381       1
       11401.772       27.970779       21.298416       1
       11425.106       10.755951       21.476329       1
       11448.439       50.234611       21.257195       1
       11471.772       36.571235       21.515762       1
       11495.106       23.646979       20.818193       1
       11518.439       20.178099       21.254694       1
       11541.772       34.901479       20.767687       1
       11565.106       30.830755       21.002561       1
       11588.439       26.758986       20.414591       1
       11611.772       57.361233       21.239158       1
       11635.106       30.419800       20.153635       1
       11658.439       37.089114       20.642889       1
       11681.772       28.064142       19.751899       1
       11705.106       16.245747       19.817431       1
       11728.439       12.456386       19.090190       1
       11751.772       44.810405       19.565648       1
       11775.106       22.605775       18.731803       1
       11798.439       34.397995       19.151373       1
       11821.772       33.385447       18.510522       1
       11845.106       38.646388       18.918790       1
       11868.439       26.358766       18.064919       1
       11891.772       39.035976       18.537347       1
       11915.106       47.013924       17.942782       1
       11938.439       15.857595       17.999174       1
       11961.773       54.272907       17.799707       1
       11985.106       26.786680       17.886868       1
       12008.439       64.502809       17.630126       1
       12031.773       74.531298       17.872172       1
       12055.106       34.830924       17.002017       1
       12078.439       21.925225       17.259865       1
       12101.773       28.858175       16.906558       1
       12125.106       26.572692       17.177213       1
       12148.439       34.453232       16.718360       1
       12171.773       28.528569       17.065803       1
       12195.106       27.374251       16.245735       1
       12218.439       21.190040       16.784172       1
       12241.773       21.137051       16.177757       1
       12265.106       54.523669       16.915889       1
       12288.439       33.437304       16.186709       1
       12311.773       43.349909       16.569245       1
       12335.106       34.946865       16.069312       1
       12358.439       30.447921       16.338160       1
       12381.773       50.065048       15.986118       1
       12405.106       14.184769       15.949472       1
       12428.439       19.857995       15.563144       1
       12451.773       36.198568       16.056899       1
       12475.106       39.085471       15.580941       1
       12498.440       35.712708       15.677191       1
       12521.773       31.798036       15.303723       1
       12545.106       26.447912       15.709521       1
       12568.440       20.839080       15.257788       1
       12591.773       21.509977       15.659973       1
       12615.106       26.847967       15.236978       1
       12638.440       32.872533       15.610164       1
       12661.773       12.806400       14.944428       1
       12685.106       25.022338       15.502258       1
       12708.440       21.580601       14.770115       1
       12731.773       30.833199       15.245269       1
       12755.106       18.274444       14.601108       1
       12778.440       39.316719       15.111296       1
       12801.773       29.328676       14.618913       1
       12825.106       40.699592       14.882744       1
       12848.440       12.829103       14.189838       1
       12871.773       14.748856       14.653902       1
       12895.106       24.659776       14.313447       1
       12918.440       15.948491       14.533228       1
       12941.773       22.784277       14.017601       1
       12965.106       24.406059       14.438740       1
       12988.440       23.388702       13.868613       1
       13011.773       35.156666       14.291661       1
       13035.106       32.900096       13.927700       1
       13058.440       39.981775       14.169141       1
       13081.773       8.5612249       13.553144       1
       13105.107       32.840015       14.061257       1
       13128.440       30.168118       13.517310       1
       13151.773       22.054561       13.810264       1
       13175.107       27.023221       13.393570       1
       13198.440       20.786750       13.600281       1
       13221.773       15.937772       13.155261       1
       13245.107       24.284060       13.613450       1
       13268.440       34.116153       13.215786       1
       13291.773       28.377158       13.539265       1
       13315.107       31.317347       13.067911       1
       13338.440       22.741040       13.462562       1
       13361.773       12.904393       12.909235       1
       13385.107       14.290517       13.232754       1
       13408.440       19.425241       12.842115       1
       13431.773       29.170136       13.260774       1
       13455.107       29.192314       12.823413       1
       13478.440       27.279308       13.055447       1
       13501.773       30.178634       12.680875       1
       13525.107       24.956743       12.941056       1
       13548.440       17.475836       12.540250       1
       13571.773       16.277763       12.864255       1
       13595.107       33.776042       12.674254       1
       13618.440       16.273834       12.803467       1
       13641.774       25.621984       12.616348       1
       13665.107       14.055035       12.837268       1
       13688.440       46.893643       12.794374       1
       13711.774       19.834774       12.950365       1
       13735.107       7.4509925       14.457184       1
       13758.440       2.9577462       12.672647       1
       13781.774       32.269787       12.685272       1
       13805.107       16.230300       12.865845       1
       13828.440       23.149910       12.480124       1
       13851.774       14.382364       12.798577       1
       13875.107       19.391453       12.465562       1
       13898.440       22.983189       12.836388       1
       13921.774       21.945855       12.491407       1
       13945.107       41.459537       12.957768       1
       13968.440       24.210080       12.473948       1
       13991.774       31.251371       12.761760       1
       14015.107       26.009565       12.308336       1
       14038.440       26.809922       12.582541       1
       14061.774       34.807418       12.275605       1
       14085.107       38.010684       12.575311       1
       14108.440       27.248375       12.133574       1
       14131.774       19.156979       12.305445       1
       14155.107       30.411510       12.080524       1
       14178.440       23.335220       12.359067       1
       14201.774       34.105934       12.051085       1
       14225.107       24.590710       12.239488       1
       14248.441       26.069083       11.898555       1
       14271.774       34.410992       12.225337       1
       14295.107       18.267460       11.748833       1
       14318.441       29.059064       12.070354       1
       14341.774       31.080203       11.769904       1
       14365.107       15.148461       11.872997       1
       14388.441       33.649974       11.824203       1
       14411.774       34.507470       12.023819       1
       14435.107       34.154584       11.736514       1
       14458.441       29.515010       11.970701       1
       14481.774       25.747475       11.656527       1
       14505.107       54.103561       12.225837       1
       14528.441       40.739247       11.716992       1
       14551.774       32.564085       12.060090       1
       14575.107       17.778692       11.531138       1
       14598.441       23.657706       11.889224       1
       14621.774       42.536444       11.777451       1
       14645.107       23.229563       11.943307       1
       14668.441       21.875957       11.598155       1
       14691.774       26.690712       11.922938       1
       14715.107       22.687954       11.587592       1
       14738.441       18.033104       11.871507       1
       14761.774       30.783619       11.694724       1
       14785.108       40.525019       12.125090       1
       14808.441       17.742156       11.449606       1
       14831.774       28.149722       11.930706       1
       14855.108       28.622224       11.552370       1
       14878.441       11.307172       11.741956       1
       14901.774       27.276257       11.514308       1
       14925.108       16.600550       11.699321       1
       14948.441       25.358794       11.267992       1
       14971.774       16.089803       11.561081       1
       14995.108     0.079808208       11.051054       1
       15018.441       22.681386       11.658051       1
       15041.774       28.889114       11.286734       1
       15065.108       17.383341       11.550389       1
       15088.441       20.975656       11.255495       1
       15111.774       26.636610       11.619581       1
       15135.108       15.588611       11.131212       1
       15158.441       22.137431       11.474105       1
       15181.774       21.042659       11.183077       1
       15205.108       24.701757       11.535127       1
       15228.441       10.613126       11.029159       1
       15251.774       22.759534       11.427174       1
       15275.108       18.714889       11.079270       1
       15298.441       16.354134       11.323176       1
       15321.775       22.693571       11.082445       1
       15345.108       12.980192       11.318328       1
       15368.441       8.5754579       10.948139       1
       15391.775       11.476348       11.231834       1
       15415.108       12.200823       10.989972       1
       15438.441       21.690488       11.394662       1
       15461.775       25.274260       11.099247       1
       15485.108       28.543601       11.508608       1
       15508.441       29.312646       12.350056       1
       15531.775       22.032244       11.406171       1
       15555.108       11.441667       12.144168       1
       15578.441       14.202331       11.407946       1
       15601.775       15.099675       10.921756       1
       15625.108       14.754361       11.392211       1
       15648.441       11.959433       10.987242       1
       15671.775       34.358439       11.572403       1
       15695.108       8.9055326       10.960209       1
       15718.441       8.5194355       11.199767       1
       15741.775       25.230000       11.042536       1
       15765.108       4.8951780       11.099095       1
       15788.441     -0.23194081       7.1070682       1
       15811.775       2.1597566       11.041508       1
       15835.108       21.589310       10.936259       1
       15858.441       22.118184       11.184417       1
       15881.775       14.208936       10.878238       1
       15905.108       13.178709       11.109519       1
       15928.442       10.793879       7.2961747       1
       15951.775       26.827047       11.247346       1
       15975.108       25.230190       11.020120       1
       15998.442       17.825983       11.269427       1
       16021.775       20.298719       10.988554       1
       16045.108       17.433729       11.269906       1
       16068.442       5.5873332       10.753088       1
       16091.775       21.752783       11.287585       1
       16115.108       22.706688       11.008135       1
       16138.442       20.687698       11.237575       1
       16161.775       30.955508       11.132876       1
       16185.108       24.414977       11.329650       1
       16208.442       13.650491       11.089781       1
       16231.775       21.947857       11.509383       1
       16255.108       28.518899       11.252350       1
       16278.442       15.116153       11.477549       1
       16301.775       16.447361       11.164223       1
       16325.108       4.4501433       11.429989       1
       16348.442       11.723979       11.178277       1
       16371.775       18.624274       11.571715       1
       16395.108       16.241197       11.345741       1
       16418.442       30.799405       11.727763       1
       16441.775       11.943102       11.278547       1
       16465.109       19.761550       11.746568       1
       16488.442       18.731914       11.487958       1
       16511.775       24.019084       11.938282       1
       16535.109       26.061467       11.805001       1
       16558.442       10.240239       12.281434       1
       16581.775       30.276969       12.670587       1
       16605.109       17.821563       13.381016       1
       16628.442       3.9931128       10.317321       1
       16651.775       21.631356       15.633975       1
       16675.109       20.364727       15.760905       1
       16698.442       30.590784       17.982570       1
       16721.775       11.927872       19.069778       1
       16745.109       33.211099       22.086212       1
       16768.442       35.303948       24.312961       0
       16791.775       22.128067       28.325734       0
       16815.109       46.892099       31.747037       0
       16838.442       3.6849105       36.734270       0
       16861.775       65.096055       41.301456       0
       16885.109       17.464466       47.389312       0
       16908.442       14.882162       51.283799       0
       16931.775       72.645952       59.715555       0
       16955.109      -8.6945350       63.842778       0
       16978.442       89.371923       74.659273       0
       17001.775       40.704821       80.360836       0
       17025.109       29.773729       92.101293       0
       17048.442       39.660874       100.35023       0
       17071.776       101.08135       114.84763       0
       17095.109       46.018570       123.40030       0
       17118.442       10.301360       140.86119       0
       17141.776      -12.177796       154.33224       0
       17165.109       50.968830       180.18283       0
       17188.442      -32.128125       202.89487       0
       17211.776       107.83364   1.2489514e+08       0
       17235.109       10.990905       269.35185       0
       17258.442       558.08963       319.47483       0
       17281.776      -337.47393       339.97247       0
       17305.109      -166.78806       394.07649       0
       17328.442       138.51054       426.85823       0
       17351.776      -50.132802       327.55855       0
       17375.109      -164.37409       515.78279       0
       17398.442       268.85688       596.39359       0
       17421.776       1018.3360       656.74877       0
       17445.109      -269.78669       719.56355       0
       17468.442       254.59216       767.68697       0
       17491.776       50.993609       882.54334       0
       17515.109      -31.859210       993.36158       0
