#WAVELENGTH FLUX ERROR MASK
       10258.438      -1984.3001       1936.2200       0
       10281.772      -460.35441       1632.3583       0
       10305.105       32.468065       1460.5907       0
       10328.438      -41.586646       1264.8592       0
       10351.772       158.81143       1179.8777       0
       10375.105       647.81535       1046.9320       0
       10398.438      -464.15059       969.93494       0
       10421.772      -617.71202       853.67908       0
       10445.105       568.02071       781.27560       0
       10468.438      -222.72442       641.28542       0
       10491.772       336.15636       561.93588       0
       10515.105      -151.71914       454.13847       0
       10538.438      -255.38715       395.41743       0
       10561.772       50.649286       337.51611       0
       10585.105       213.75898       305.54944       0
       10608.438       43.963856       265.59734       0
       10631.772       254.84865       247.56019       0
       10655.105      -32.688112       213.36122       0
       10678.438       13.741398       192.82839       0
       10701.772      -68.483056       160.41757       0
       10725.105       113.57912       141.33838       0
       10748.438       35.806135       113.08527       0
       10771.772       72.181247       96.947433       0
       10795.105      -24.440665       78.227373       0
       10818.439      -3.4617240       68.972724       0
       10841.772       67.673932       58.999340       0
       10865.105       64.257792       54.589264       0
       10888.439       27.357319       52.146800       0
       10911.772       36.413391       45.570890       0
       10935.105       12.495981       35.085750       0
       10958.439       75.468599       40.928549       0
       10981.772       12.617088       35.698304       0
       11005.105       53.503868       34.685189       1
       11028.439      -3.9778656       31.556498       1
       11051.772       40.720889       30.279945       1
       11075.105       29.733885       28.109909       1
       11098.439       12.784305       26.831007       1
       11121.772       44.517167       25.244042       1
       11145.105       48.324495       25.378461       1
       11168.439       40.722348       23.946686       1
       11191.772       19.218351       23.975702       1
       11215.105       30.481180       23.108743       1
       11238.439       34.119515       23.591294       1
       11261.772       21.743691       22.543455       1
       11285.105       15.937794       22.909252       1
       11308.439       19.761120       22.123780       1
       11331.772       53.078363       22.815191       1
       11355.106       21.006184       21.672622       1
       11378.439       61.135897       23.927198       1
       11401.772       29.408992       21.426567       1
       11425.106       36.839295       21.736770       1
       11448.439       41.051912       21.143210       1
       11471.772       33.569312       21.435638       1
       11495.106       29.650198       20.853049       1
       11518.439       20.966288       21.178638       1
       11541.772       28.771690       20.689362       1
       11565.106       13.722371       20.858596       1
       11588.439       20.224517       20.336018       1
       11611.772       14.944090       20.691228       1
       11635.106       28.556939       20.187729       1
       11658.439       11.330173       20.314944       1
       11681.772       12.842712       19.679671       1
       11705.106       16.496385       20.014044       1
       11728.439       11.822675       18.873019       1
       11751.772       26.976278       19.580011       1
       11775.106       31.955945       18.744477       1
       11798.439       15.982200       18.974930       1
       11821.772       22.899949       18.377140       1
       11845.106       15.323723       18.561173       1
       11868.439       20.115852       18.027071       1
       11891.772       9.4807812       18.234261       1
       11915.106       23.618543       19.235726       1
       11938.439       22.397467       18.119180       1
       11961.773       5.0796508       18.809517       1
       11985.106       24.726609       17.876169       1
       12008.439       16.351900       17.217317       1
       12031.773       16.365175       17.371100       1
       12055.106       27.291733       16.828694       1
       12078.439       14.309132       17.232624       1
       12101.773       26.778671       16.773521       1
       12125.106       21.332411       17.257647       1
       12148.439       29.608690       16.684710       1
       12171.773       13.587838       16.840244       1
       12195.106       18.283606       16.167462       1
       12218.439       33.289830       16.917452       1
       12241.773       22.355763       16.064085       1
       12265.106       26.829407       16.851642       1
       12288.439       8.0268641       15.810069       1
       12311.773      -2.7749794       14.495227       1
       12335.106       33.021085       16.018908       1
       12358.439       18.487526       16.121612       1
       12381.773       16.609664       15.587331       1
       12405.106       32.426921       16.114221       1
       12428.439       14.814828       15.505013       1
       12451.773       28.720378       17.251962       1
       12475.106       12.758280       15.305485       1
       12498.440       10.466739       16.781192       1
       12521.773       15.188098       15.062254       1
       12545.106       6.5141065       13.632955       1
       12568.440       18.494804       15.151521       1
       12591.773       7.8696831       15.483485       1
       12615.106       13.194735       15.087914       1
       12638.440       18.594924       15.443026       1
       12661.773       21.710102       15.046929       1
       12685.106       2.7563171       16.491617       1
       12708.440       15.520530       14.775499       1
       12731.773       16.335195       16.357264       1
       12755.106       6.2411236       14.519532       1
       12778.440       21.517161       14.920612       1
       12801.773     -0.14115526       14.300654       1
       12825.106       24.615923       14.859503       1
       12848.440       23.364910       14.394002       1
       12871.773       19.428656       14.730544       1
       12895.106       18.794346       14.210517       1
       12918.440       25.638466       14.642722       1
       12941.773       19.279172       14.057622       1
       12965.106       21.630801       14.386203       1
       12988.440       24.036044       13.928827       1
       13011.773       25.848082       14.267287       1
       13035.106       26.610586       4984357.3       1
       13058.440       12.118172       13.997813       1
       13081.773       14.769631       13.580357       1
       13105.107       24.374414       14.023467       1
       13128.440       11.702641       13.378769       1
       13151.773       18.148907       13.730053       1
       13175.107       22.199666       13.377094       1
       13198.440       17.636739       13.668316       1
       13221.773       11.316062       13.141246       1
       13245.107       13.513279       13.384868       1
       13268.440       21.791685       13.149158       1
       13291.773       26.695211       13.510509       1
       13315.107       22.149556       13.033970       1
       13338.440       13.000300       13.345520       1
       13361.773       25.561343       12.985746       1
       13385.107       15.456186       13.195542       1
       13408.440      -4.6038481       12.592174       1
       13431.773       9.8521031       13.003427       1
       13455.107       18.099692       12.749480       1
       13478.440       9.3885882       12.923699       1
       13501.773       19.219598       12.627751       1
       13525.107       7.1213044       12.809022       1
       13548.440       17.935624       12.548616       1
       13571.773       15.706327       12.859420       1
       13595.107       22.446027       12.571894       1
       13618.440       24.827753       12.906302       1
       13641.774       17.667952       12.516735       1
       13665.107       15.822879       12.817386       1
       13688.440       23.132314       12.531166       1
       13711.774       10.455792       12.800010       1
       13735.107       12.121446       13.439003       1
       13758.440       20.852249       12.899523       1
       13781.774       15.866505       13.548073       1
       13805.107       7.7443278       12.793042       1
       13828.440       29.637696       12.653805       1
       13851.774       17.013803       12.856798       1
       13875.107       4.7060833       12.275760       1
       13898.440       12.002536       12.942877       1
       13921.774       9.2625978       12.302987       1
       13945.107       19.377430       13.021317       1
       13968.440       16.677056       12.372071       1
       13991.774       17.869621       12.644961       1
       14015.107       36.317111       12.414526       1
       14038.440       20.405661       12.557295       1
       14061.774       17.236591       12.095085       1
       14085.107       4.5625237       12.268111       1
       14108.440       21.279871       11.975859       1
       14131.774       16.716694       12.269009       1
       14155.107       18.967905       11.906321       1
       14178.440       19.177417       12.290391       1
       14201.774       26.751574       12.064388       1
       14225.107       10.579598       12.134692       1
       14248.441       15.453841       12.434262       1
       14271.774       15.913422       12.080395       1
       14295.107       29.590507       11.863969       1
       14318.441       24.667368       12.045560       1
       14341.774       19.252061       11.634011       1
       14365.107       13.598021       11.839587       1
       14388.441       18.256274       11.555728       1
       14411.774       23.293641       11.912369       1
       14435.107       27.177521       11.700391       1
       14458.441       26.384633       11.978454       1
       14481.774       24.799027       12.681152       1
       14505.107       23.209088       11.882108       1
       14528.441       19.698184       11.592329       1
       14551.774       29.750471       11.993400       1
       14575.107       15.634643       11.478206       1
       14598.441       21.735940       11.935133       1
       14621.774       26.570782       11.599489       1
       14645.107       21.739912       11.874713       1
       14668.441       27.223655       11.606166       1
       14691.774       15.010415       11.862819       1
       14715.107       19.083226       10.328064       1
       14738.441       12.836824       11.845190       1
       14761.774       9.3555221       10.257830       1
       14785.108       21.474777       11.945137       1
       14808.441       9.0958944       11.429827       1
       14831.774       31.116052       12.004722       1
       14855.108       16.791657       4179405.2       1
       14878.441       18.323925       11.767491       1
       14901.774       12.607557       11.362443       1
       14925.108       12.331761       11.678981       1
       14948.441       11.535991       11.222966       1
       14971.774       8.8947321       11.474645       1
       14995.108       18.433401       11.264409       1
       15018.441       13.753696       11.489016       1
       15041.774       15.804529       11.202088       1
       15065.108       15.644738       11.535790       1
       15088.441       15.818474       11.167128       1
       15111.774       19.940974       11.517827       1
       15135.108       6.5529644       9.4264841       1
       15158.441       12.785236       11.439170       1
       15181.774       10.085755       11.077525       1
       15205.108       14.471218       11.358194       1
       15228.441       17.128443       11.086272       1
       15251.774       15.457973       11.337648       1
       15275.108       11.317671       11.013332       1
       15298.441       17.319835       11.321702       1
       15321.775       14.696359       11.005959       1
       15345.108       14.495580       11.340138       1
       15368.441       11.488193       10.987530       1
       15391.775       11.637746       11.313437       1
       15415.108       31.366892       11.226929       1
       15438.441       10.806651       11.331837       1
       15461.775       30.150040       11.233106       1
       15485.108       6.2744625       11.302359       1
       15508.441       12.906648       9.8836479       1
       15531.775       6.8185650       11.245583       1
       15555.108       23.464918       11.185439       1
       15578.441       10.690677       11.300076       1
       15601.775       9.5269818       10.983666       1
       15625.108       11.756102       11.349335       1
       15648.441       16.035540       11.061603       1
       15671.775       8.4659578       11.258229       1
       15695.108       24.371178       11.085494       1
       15718.441       17.536740       11.297158       1
       15741.775       5.4045533       10.861484       1
       15765.108       10.275468       11.154255       1
       15788.441      0.42181322       10.743670       1
       15811.775       8.9750126       11.111670       1
       15835.108       18.793630       10.947807       1
       15858.441       11.598633       11.123741       1
       15881.775       10.603239       11.850846       1
       15905.108       4.5811025       11.071498       1
       15928.442       7.2041049       9.2253183       1
       15951.775       8.5818953       11.115621       1
       15975.108       13.294307       10.908605       1
       15998.442       20.430751       11.249788       1
       16021.775       7.7386382       10.869141       1
       16045.108       12.546329       11.189405       1
       16068.442       16.870935       10.934077       1
       16091.775       12.438912       11.146378       1
       16115.108       7.9504287       10.871514       1
       16138.442       14.984249       11.225873       1
       16161.775       9.6160519       10.971032       1
       16185.108       15.153926       11.259684       1
       16208.442       18.362885       11.098778       1
       16231.775       5.4124134       11.309482       1
       16255.108       10.350393       11.111360       1
       16278.442       14.576315       11.458697       1
       16301.775       9.8793174       9.8678445       1
       16325.108       6.2645149       11.417410       1
       16348.442       16.283024       11.271891       1
       16371.775       10.961155       11.481203       1
       16395.108       14.480073       11.311008       1
       16418.442       15.190637       11.660265       1
       16441.775       9.4020660       11.301077       1
       16465.109       14.946297       11.693966       1
       16488.442       20.932575       11.471502       1
       16511.775       6.6421009       11.792015       1
       16535.109       11.731473       11.670603       1
       16558.442       15.022998       12.373141       1
       16581.775       8.8742456       12.405410       1
       16605.109       9.4802343       11.445277       1
       16628.442       3.5318246       13.601102       1
       16651.775       15.207221       15.040182       1
       16675.109       8.6132232       15.766333       1
       16698.442       10.168213       17.776700       1
       16721.775       4.4428974       19.033369       1
       16745.109       22.237640       21.933348       1
       16768.442       25.145191       24.221868       0
       16791.775      -5.2443264       28.036874       0
       16815.109       16.769651       31.494804       0
       16838.442       30.438339       37.154154       0
       16861.775       34.768117       41.072145       0
       16885.109       30.910516       47.528966       0
       16908.442       3.4733840       51.138697       0
       16931.775       17.121158       59.190433       0
       16955.109       13.692377       64.113547       0
       16978.442       18.324082       73.693043       0
       17001.775       5.6555064       80.209371       0
       17025.109      -13.307212       91.753133       0
       17048.442       51.370005       100.91788       0
       17071.776       72.528811       114.49501       0
       17095.109       64.397761       122.98843       0
       17118.442      -70.930202       140.53018       0
       17141.776      -71.705916       58183703.       0
       17165.109       122.40374       182.42603       0
       17188.442       124.35122       204.14266       0
       17211.776       25.718153       205.79812       0
       17235.109      -1.0896395       269.16108       0
       17258.442      -3.2654841       312.56389       0
       17281.776       72.203203       343.53804       0
       17305.109       256.71224       397.65100       0
       17328.442      -92.537455       424.80587       0
       17351.776      -102.88908       481.42285       0
       17375.109       60.199436       515.96153       0
       17398.442       517.43699       515.66889       0
       17421.776       205.03087       646.01039       0
       17445.109      -362.70764       718.01414       0
       17468.442       938.29664       776.36390       0
       17491.776       699.78711       889.85833       0
       17515.109       74.565551       997.09226       0
