#WAVELENGTH FLUX ERROR MASK
       7511.8566      -4138.2741       15482.666       0
       7524.4875      -328.53795       11671.419       0
       7537.1184       14757.976       11172.054       0
       7549.7492      -3291.3765       7047.7473       0
       7562.3801       1971.8543       6815.5480       0
       7575.0110       6551.4047       4391.9399       0
       7587.6418      -3424.7267       4275.6411       0
       7600.2727       1475.0980       2872.0858       0
       7612.9036       2407.4432       2995.4777       0
       7625.5344       368.46712       2036.5186       0
       7638.1653      -480.07183       2176.7769       0
       7650.7962       96.329798       1510.0149       0
       7663.4270      -636.87166       1565.3134       0
       7676.0579       727.87787       1058.1674       0
       7688.6888       1818.0658       1099.6024       0
       7701.3196       188.76977       726.70956       0
       7713.9505       872.28081       780.39254       0
       7726.5814      -238.27723       540.67458       0
       7739.2123      -152.02442   3.7255396e+08       0
       7751.8431      -215.28867       437.13820       0
       7764.4740       361.69230       505.86626       0
       7777.1049       195.20516       374.67669       0
       7789.7357       152.24356       423.19354       0
       7802.3666       687.24698       313.53423       0
       7814.9975      -29.236128       362.90663       0
       7827.6283       301.59898       247.95101       0
       7840.2592       317.23732       277.20321       0
       7852.8901      -52.361281       197.89448       0
       7865.5209       385.18617       226.76342       0
       7878.1518       110.48624       165.47024       0
       7890.7827       117.14930       190.46029       0
       7903.4135       110.38008       143.20185       0
       7916.0444       66.027946       164.99756       0
       7928.6753       199.37377       127.48038       0
       7941.3061       32.447051       150.06503       0
       7953.9370       128.98688       115.63004       0
       7966.5679       59.359111       136.20649       0
       7979.1987       99.103614       105.35438       0
       7991.8296      -121.82743       124.59824       0
       8004.4605      -10.706015       95.848918       0
       8017.0913       187.36121       119.76144       0
       8029.7222      -19.074821       95.445590       0
       8042.3531       146.58323       113.30725       0
       8054.9840       74.972716       91.685282       0
       8067.6148      -73.925524       106.06127       0
       8080.2457       93.115518       87.443462       0
       8092.8766       88.972525       103.97268       0
       8105.5074       64.224218       81.533232       0
       8118.1383       49.706576       122.20026       0
       8130.7692       27.128846       79.020576       0
       8143.4000       32.862600       101.67806       0
       8156.0309       44.275397       75.929986       1
       8168.6618      -79.835435       91.866208       1
       8181.2926      -9.0529535       72.809307       1
       8193.9235       39.790147       89.291630       1
       8206.5544       35.865748       70.521157       1
       8219.1852       30.295136       85.951313       1
       8231.8161       20.132325       67.022109       1
       8244.4470       23.737959       81.721767       1
       8257.0778       37.809329       63.726784       1
       8269.7087       111.81233       77.851180       1
       8282.3396       102.99919       60.729791       1
       8294.9704       3.9670254       73.367375       1
       8307.6013       64.659631       58.153442       1
       8320.2322       53.343936       70.392298       1
       8332.8631       25.803438       62.878105       1
       8345.4939       130.34745       68.995370       1
       8358.1248       50.408727       54.001379       1
       8370.7557       109.03971       66.690281       1
       8383.3865       22.124029       55.015193       1
       8396.0174      -9.1931871       63.613532       1
       8408.6483     -0.30915789       53.310583       1
       8421.2791       70.484939       62.897747       1
       8433.9100       36.902807       49.635916       1
       8446.5409       55.032969       60.366578       1
       8459.1717       54.869869       54.438538       1
       8471.8026      -1.8658019       58.419547       1
       8484.4335       56.183358       46.677597       1
       8497.0643       56.581259       57.180324       1
       8509.6952       14.067448       44.797719       1
       8522.3261       53.587062       60.251885       1
       8534.9569       75.185411       44.734059       1
       8547.5878       73.836119       59.599741       1
       8560.2187       45.462258       43.700629       1
       8572.8495       46.753110       54.209644       1
       8585.4804       116.01485       43.607598       1
       8598.1113       27.972788       53.129373       1
       8610.7421       32.703879       42.856967       1
       8623.3730       80.930655       53.559540       1
       8636.0039       65.878672       42.797708       1
       8648.6348       79.846073       52.835752       1
       8661.2656       79.472105       42.307392       1
       8673.8965       57.953973       51.829821       1
       8686.5274       62.231951       41.300576       1
       8699.1582       117.70440       50.792733       1
       8711.7891       87.701815       40.139170       1
       8724.4200       94.145697       48.610665       1
       8737.0508       76.290447       38.512348       1
       8749.6817       25.265844       46.296643       1
       8762.3126       18.015251       37.057933       1
       8774.9434       54.663644       45.624743       1
       8787.5743       64.227709       36.187762       1
       8800.2052       16.378922       44.211946       1
       8812.8360       42.037652       35.514919       1
       8825.4669       54.619213       44.160266       1
       8838.0978       43.496445       34.798488       1
       8850.7286       50.617317       43.134185       1
       8863.3595       44.184871       34.108694       1
       8875.9904       75.627052       42.028845       1
       8888.6212       46.791105       33.400464       1
       8901.2521       92.593929       41.542037       1
       8913.8830       59.055465       32.911239       1
       8926.5139       62.293250       43.198082       1
       8939.1447       52.644563       32.268351       1
       8951.7756       69.800758       40.036488       1
       8964.4065       17.323818       31.540389       1
       8977.0373     -0.60979336       38.711491       1
       8989.6682       61.450771       31.159294       1
       9002.2991       64.463793       38.635417       1
       9014.9299       12.754958       30.369475       1
       9027.5608       34.164508       23266436.       1
       9040.1917       40.880110       30.101262       1
       9052.8225       57.264466       37.496799       1
       9065.4534       26.897794       29.998315       1
       9078.0843       42.760887       37.341405       1
       9090.7151       53.315049       29.900381       1
       9103.3460       40.971678       36.870397       1
       9115.9769       44.764454       29.229693       1
       9128.6077       83.602178       36.267922       1
       9141.2386       34.981181       28.571665       1
       9153.8695       28.570550       35.179129       1
       9166.5003       46.651454       28.187848       1
       9179.1312       25.391666       34.438368       1
       9191.7621       43.909398       27.751383       1
       9204.3929       70.705496       34.041540       1
       9217.0238       56.430485       27.084845       1
       9229.6547       1.0437702       32.995135       1
       9242.2856       42.233260       26.551805       1
       9254.9164      -4.8378288       32.222513       1
       9267.5473       33.120284       26.178532       1
       9280.1782       33.261576       32.125610       1
       9292.8090       46.537677       25.920928       1
       9305.4399       56.128918       32.058391       1
       9318.0708       60.255145       25.554072       1
       9330.7016       21.230944       31.318887       1
       9343.3325       42.193552       25.293102       1
       9355.9634       18.489484       31.125628       1
       9368.5942       69.925666       25.338097       1
       9381.2251       54.787493       31.300515       1
       9393.8560       60.231118       24.973071       1
       9406.4868       33.284874       30.891479       1
       9419.1177       59.928268       24.825932       1
       9431.7486       59.977514       30.688316       1
       9444.3794       20.534014       24.080373       1
       9457.0103       48.633129       30.118338       1
       9469.6412       26.355055       23.870678       1
       9482.2720       12.555016       29.418379       1
       9494.9029       28.848813       23.528620       1
       9507.5338       6.0645936       28.835904       1
       9520.1647       79.471745       23.617140       1
       9532.7955       30.345087       28.882957       1
       9545.4264       50.815097       23.276015       1
       9558.0573       69.440645       29.267351       1
       9570.6881       31.272762       22.851261       1
       9583.3190       45.213711       28.327983       1
       9595.9499       40.131085       22.674634       1
       9608.5807       42.243682       27.970236       1
       9621.2116       46.386186       22.380281       1
       9633.8425       48.735504       27.794643       1
       9646.4733       53.158862       22.251613       1
       9659.1042       9.3707661       27.297361       1
       9671.7351       52.860586       22.039585       1
       9684.3659       38.849004       27.108781       1
       9696.9968       19.398358       21.683830       1
       9709.6277       29.142735       26.890802       1
       9722.2585       43.012713       21.695272       1
       9734.8894       62.665842       26.968816       1
       9747.5203       55.413667       21.575817       1
       9760.1511       59.304036       26.714196       1
       9772.7820       27.280692       21.781274       1
       9785.4129       47.125110       26.283386       1
       9798.0437       11.848732       20.744198       1
       9810.6746       60.443090       26.266860       1
       9823.3055       36.172250       20.859685       1
       9835.9364       46.064971       25.695040       1
       9848.5672       49.924538       20.837526       1
       9861.1981       17.542727       25.625596       1
       9873.8290       31.172425       20.584963       1
       9886.4598       46.559498       25.645084       1
       9899.0907       55.810878       21.354555       1
       9911.7216       42.003222       25.522647       1
       9924.3524       30.029031       20.913542       1
       9936.9833       15.424107       25.277646       1
       9949.6142       10.270123       20.174409       1
       9962.2450       41.624161       25.152399       1
       9974.8759       36.416571       20.268944       1
       9987.5068       50.832492       25.089718       1
       10000.138       21.216915       19.948514       1
       10012.769       20.161748       24.709277       1
       10025.399       54.570997       19.905273       1
       10038.030       37.713251       24.462456       1
       10050.661       55.716699       19.697213       1
       10063.292       65.115128       24.382030       1
       10075.923       56.099460       19.426604       1
       10088.554       65.904639       24.211954       1
       10101.185       36.558809       19.340643       1
       10113.815       33.759013       23.992939       1
       10126.446       45.648623       19.355398       1
       10139.077       18.235719       23.705924       1
       10151.708       42.020092       19.245533       1
       10164.339       4.2616460       23.580000       1
       10176.970       52.155070       19.247701       1
       10189.601       49.900482       23.812115       1
       10202.232       24.985639       18.988816       1
       10214.862       23.105135       23.497010       1
       10227.493       30.852236       18.791791       1
       10240.124       34.800928       23.346613       1
       10252.755       45.390614       18.853066       1
       10265.386       60.256429       23.316990       1
       10278.017       38.247203       18.617803       1
       10290.648       48.722955       23.040679       1
       10303.278       33.418174       18.338558       1
       10315.909       28.032699       22.551925       1
       10328.540       37.003982       18.211187       1
       10341.171       47.471826       22.337655       1
       10353.802       16.472861       17.884337       1
       10366.433       34.886333       22.218164       1
       10379.064       34.220494       17.842973       1
       10391.695       30.970611       22.042301       1
       10404.325       42.278718       17.846195       1
       10416.956       18.615708       21.892305       1
       10429.587       39.756681       17.744550       1
       10442.218       35.558072       21.992932       1
       10454.849       30.855457       17.688435       1
       10467.480       27.861049       21.901900       1
       10480.111       33.819377       17.573428       1
       10492.741       40.393804       21.763182       1
       10505.372       27.951278       19.223086       1
       10518.003       44.454637       21.796565       1
       10530.634       33.511151       17.330523       1
       10543.265       36.164968       21.557102       1
       10555.896       50.269479       17.498441       1
       10568.527       24.080650       21.557148       1
       10581.158       27.119170       17.315755       1
       10593.788       34.561799       21.732288       1
       10606.419       34.995782       17.463702       1
       10619.050       18.641682       21.657686       1
       10631.681       53.207542       17.578315       1
       10644.312      -5.1052529       21.331862       1
       10656.943       32.543848       17.342579       1
       10669.574       45.395935       21.589849       1
       10682.205       33.091215       17.274803       1
       10694.835       43.999809       21.279806       1
       10707.466       25.380298       17.066465       1
       10720.097       40.192040       21.084509       1
       10732.728       37.713504       17.050149       1
       10745.359       36.601598       20.960488       1
       10757.990       15.837421       16.861287       1
       10770.621       6.2487418       20.567217       1
       10783.251       37.165858       16.792060       1
       10795.882       9.3151781       13.846521       1
       10808.513       33.899219       16.705086       1
       10821.144       16.205622       20.533884       1
       10833.775       18.529309       16.575897       1
       10846.406       59.507277       20.911437       1
       10859.037       67.776132       16.920479       1
       10871.668       21.599816       20.511057       1
       10884.298       45.877758       16.622074       1
       10896.929       12.209291       13.710417       1
       10909.560       33.081274       16.515232       1
       10922.191       30.933213       20.391235       1
       10934.822       26.303451       16.327785       1
       10947.453       5.4574059       20.205925       1
       10960.084       36.622296       16.365466       1
       10972.714       36.503958       20.178178       1
       10985.345       30.639743       16.228013       1
       10997.976       21.982917       20.122661       1
       11010.607       44.590380       16.275296       1
       11023.238       20.517850       19.971552       1
       11035.869       37.586906       16.202269       1
       11048.500       23.728823       20.029761       1
       11061.131       17.282093       16.095783       1
       11073.761       26.012010       20.028842       1
       11086.392       19.212840       16.043482       1
       11099.023       27.832966       19.951779       1
       11111.654       34.960759       16.076047       1
       11124.285       38.857349       20.049469       1
       11136.916       19.948936       16.443147       1
       11149.547       31.921400       20.029498       1
       11162.178       42.027981       16.051618       1
       11174.808       25.790225       19.849718       1
       11187.439       29.586270       16.033262       1
       11200.070       24.652652       19.909807       0
       11212.701       20.618952       15.874443       0
       11225.332       21.117475       19.903422       0
       11237.963       44.022256       16.118092       0
       11250.594       40.800205       20.064562       0
       11263.224       32.952185       15.990958       0
       11275.855       26.439136       19.844690       0
       11288.486       34.603754       23.599403       0
       11301.117       43.014359       20.061954       0
       11313.748       34.515529       16.060676       0
       11326.379       32.776782       19.976729       0
       11339.010       13.739148       15.862098       0
       11351.641       32.837177       19.897863       0
       11364.271       32.930399       16.001186       0
       11376.902       47.730822       19.905805       0
       11389.533       38.383019       16.060069       0
       11402.164       36.859427       19.778574       0
       11414.795       32.774889       15.958986       0
       11427.426       23.913019       19.795723       0
       11440.057       24.530728       16.083854       0
       11452.687      -4.8444284       20.043556       0
       11465.318       29.688052       16.725151       0
       11477.949       10.490340       21.556688       0
       11490.580       20.702379       18.318216       0
       11503.211       20.419094       24.238186       0
       11515.842       30.265368       21.418111       0
       11528.473       1.0425219       28.852003       0
       11541.104       24.051204       26.099261       0
       11553.734       41.573257       36.455337       0
       11566.365       12.301074       33.216098       0
       11578.996       50.504142       46.842823       0
       11591.627       5.1531355       42.296970       0
       11604.258       76.801182       59.817896       0
       11616.889       11.111561       52.606318       0
       11629.520      -52.916097       72.064082       0
       11642.150       14.427167       64.087740       0
       11654.781       86.198680       89.408445       0
       11667.412       68.097720       81.511949       0
       11680.043      -29.600680       115.99217       0
       11692.674      -108.67997       109.75245       0
       11705.305      -97.849017       162.71287       0
       11717.936       118.87444       163.50673       0
       11730.567      -52.499918       246.49688       0
       11743.197      -59.025477       245.88877       0
       11755.828       290.92065       378.01817       0
       11768.459       149.42051       366.83667       0
       11781.090      -191.06324       554.93418       0
       11793.721      -113.50051       528.52740       0
       11806.352      -772.72883       816.78306       0
       11818.983       553.23282       840.60720       0
       11831.614      -1117.7064       1332.8033       0
       11844.244       194.29888       1389.8459       0
       11856.875       2297.9558       2274.1843       0
       11869.506       1613.3609       2349.0766       0
       11882.137       2876.2770       3813.2745       0
       11894.768      -321.01873       3087.1883       0
       11907.399       4089.9826       4001.4764       0
       11920.030       1194.3599       3139.8022       0
       11932.660       4859.6317       3879.6453       0
       11945.291      -27.423273       2983.6260       0
       11957.922       2829.2967       3830.9413       0
       11970.553      -1510.6094       3368.5019       0
       11983.184      -59.481798       4405.0951       0
       11995.815      -1033.6187       4285.6783       0
       12008.446      -2207.1953       5918.7150       0
       12021.077       8059.1694       5728.8225       0
       12033.707      -5681.3678       8164.6645       0
       12046.338      -3868.1215       7605.0348       0
