#WAVELENGTH FLUX ERROR MASK
       10161.827       289.26937       3221.4556       0
       10184.218       2160.1926       3206.1975       0
       10206.610       1902.8699       2738.9783       0
       10229.001       2224.7558       2509.9333       0
       10251.392       903.15937       1748.9158       0
       10273.783      -101.33393       1698.4902       0
       10296.174       564.77266       1533.2973       0
       10318.565       441.48728       1434.5886       0
       10340.956      -950.18500       1213.4363       0
       10363.347       663.65715       1180.8431       0
       10385.738       165.04407       1027.7085       0
       10408.129       646.61026       986.21182       0
       10430.520       421.56967       841.38800       0
       10452.911       491.26942       773.29597       0
       10475.302       268.26767       581.37573       0
       10497.693       481.91215       561.28268       0
       10520.085       281.41224       420.86519       0
       10542.476       114.01430       408.59654       0
       10564.867       28.353102       339.90777       0
       10587.258       85.259196       315.35531       0
       10609.649       23.194003       270.57569       0
       10632.040       139.71712       255.85121       0
       10654.431       8.6573425       220.50335       0
       10676.822       86.324217       203.83055       0
       10699.213       161.03896       172.90040       0
       10721.604       19.178699       149.10197       0
       10743.995       88.878061       120.84548       0
       10766.386       76.549707       104.03812       0
       10788.777       41.902527       84.298837       0
       10811.168       63.433449       74.564632       0
       10833.559       58.797082       63.238071       0
       10855.951       24.157325       54.949549       0
       10878.342       54.187680       51.418550       0
       10900.733       38.521344       48.957979       0
       10923.124       22.500389       43.705598       0
       10945.515       42.045931       42.800596       0
       10967.906       65.378795       38.891941       0
       10990.297       48.622276       37.580505       0
       11012.688       30.478666       33.392335       1
       11035.079       51.825619       30.527163       1
       11057.470       37.136027       29.626102       1
       11079.861       26.545882       26.884655       1
       11102.252       28.687146       26.761191       1
       11124.643       33.353020       26.838478       1
       11147.034       38.665957       25.166915       1
       11169.426       38.694251       25.566734       1
       11191.817       32.796257       24.236590       1
       11214.208       41.402749       24.764552       1
       11236.599       38.692926       23.529862       1
       11258.990       45.397130       24.353339       1
       11281.381       45.215270       23.281823       1
       11303.772       31.426312       23.787687       1
       11326.163       49.209165       22.872824       1
       11348.554       43.476344       23.311287       1
       11370.945       35.064429       22.122662       1
       11393.336       32.728483       22.848992       1
       11415.727       46.879677       21.992298       1
       11438.118       50.552873       22.645665       1
       11460.509       42.414942       21.712586       1
       11482.901       40.578178       22.393322       1
       11505.292       45.868514       21.464684       1
       11527.683       38.732446       22.143051       1
       11550.074       41.552844       21.424887       1
       11572.465       42.571871       21.936245       1
       11594.856       43.683076       21.180816       1
       11617.247       47.560587       21.832514       1
       11639.638       42.648534       20.810587       1
       11662.029       43.772167       21.379375       1
       11684.420       32.327884       20.240395       1
       11706.811       29.517185       20.787359       1
       11729.202       40.672006       19.899328       1
       11751.593       54.922992       20.368402       1
       11773.984       46.604532       19.522741       1
       11796.375       44.939182       19.532664       1
       11818.767       60.316306       19.287715       1
       11841.158       35.676152       4984249.3       1
       11863.549       34.143857       19.502054       1
       11885.940       39.317891       17.910726       1
       11908.331       31.330679       18.458532       1
       11930.722       36.699903       19.136812       1
       11953.113       36.708464       16.759612       1
       11975.504       46.405296       19.044991       1
       11997.895       34.548245       18.001817       1
       12020.286       29.612547       18.559059       1
       12042.677       36.864969       17.818705       1
       12065.068       36.837056       18.325122       1
       12087.459       44.431739       17.702681       1
       12109.850       39.779921       18.225790       1
       12132.242       40.164539       17.436950       1
       12154.633       39.540008       18.022185       1
       12177.024       52.250529       17.328322       1
       12199.415       40.818632       17.709041       1
       12221.806       49.711184       17.155678       1
       12244.197       28.833626       17.342114       1
       12266.588       43.959539       16.785498       1
       12288.979       35.055429       17.390081       1
       12311.370       38.671062       16.658421       1
       12333.761       48.526004       17.396209       1
       12356.152       42.699482       16.313741       1
       12378.543       52.951510       17.134219       1
       12400.934       46.079140       16.233353       1
       12423.325       42.533440       16.909640       1
       12445.717       49.470071       16.278332       1
       12468.108       29.119317       15.092810       1
       12490.499       42.721981       16.061250       1
       12512.890       37.905928       16.375550       1
       12535.281       50.361699       15.839750       1
       12557.672       34.045607       16.095161       1
       12580.063       29.621645       14.535677       1
       12602.454       36.119191       14.770005       1
       12624.845       29.723681       15.361408       1
       12647.236       25.163417       13.313079       1
       12669.627       32.223971       14.373895       1
       12692.018       51.318886       16.082491       1
       12714.409       38.122625       15.347031       1
       12736.800       46.025120       15.835716       1
       12759.192       35.577275       14.152678       1
       12781.583       39.664722       15.596403       1
       12803.974       32.750457       14.886040       1
       12826.365       40.178543       15.453356       1
       12848.756       31.290049       14.753253       1
       12871.147       34.669182       15.286928       1
       12893.538       33.086389       14.724380       1
       12915.929       35.640109       15.220596       1
       12938.320       33.392908       14.669915       1
       12960.711       43.602977       15.142074       1
       12983.102       41.935128       14.430915       1
       13005.493       36.913506       14.835990       1
       13027.884       41.014610       14.312964       1
       13050.275       41.017692       13.592064       1
       13072.666       44.559939       13.342981       1
       13095.058       58.547476       14.854173       1
       13117.449       30.266850       12.847407       1
       13139.840       39.815855       14.574472       1
       13162.231       32.200988       12.100740       1
       13184.622       46.677944       14.472493       1
       13207.013       37.852961       12.878718       1
       13229.404       46.255988       14.379417       1
       13251.795       39.056505       12.704633       1
       13274.186       41.750552       14.243017       1
       13296.577       35.844960       12.721390       1
       13318.968       42.446409       14.125267       1
       13341.359       44.692760       13.627987       1
       13363.750       45.485435       14.142800       1
       13386.141       47.539489       13.609585       1
       13408.533       39.960142       13.897561       1
       13430.924       37.032175       13.369780       1
       13453.315       44.036279       13.816978       1
       13475.706       35.727950       13.188420       1
       13498.097       43.026197       13.676399       1
       13520.488       43.847766       13.194623       1
       13542.879       30.871369       13.542034       1
       13565.270       46.312528       13.191819       1
       13587.661       39.264147       13.608575       1
       13610.052       44.016903       13.137948       1
       13632.443       43.960742       13.620335       1
       13654.834       37.026323       13.102937       1
       13677.225       41.292225       13.649552       1
       13699.616       35.351278       13.111979       1
       13722.008       41.206446       13.640920       1
       13744.399       46.707256       13.275583       1
       13766.790       46.502559       13.677552       1
       13789.181       45.815815       13.218060       1
       13811.572       42.343872       13.656678       1
       13833.963       39.549141       13.147144       1
       13856.354       42.252037       13.562162       1
       13878.745       45.555812       13.188188       1
       13901.136       42.387560       13.532978       1
       13923.527       36.580373       12.983661       1
       13945.918       36.133198       4787012.2       1
       13968.309       45.327068       13.050343       1
       13990.700       48.123957       13.376727       1
       14013.091       41.983878       12.864345       1
       14035.482       43.328742       13.275450       1
       14057.874       46.593240       12.787779       1
       14080.265       44.918733       13.116636       1
       14102.656       39.933308       12.568699       1
       14125.047       42.234068       13.050193       1
       14147.438       39.718359       3268470.7       1
       14169.829       43.228860       13.070437       1
       14192.220       52.663850       12.662594       1
       14214.611       48.451626       13.005153       1
       14237.002       44.477260       12.420181       1
       14259.393       48.882643       12.787303       1
       14281.784       39.356535       12.314343       1
       14304.175       35.456942       11.577439       1
       14326.566       37.646024       12.239325       1
       14348.957       40.507857       12.513674       1
       14371.349       40.530141       12.192318       1
       14393.740       33.725168       11.459160       1
       14416.131       44.115509       12.176247       1
       14438.522       34.742060       11.492211       1
       14460.913       37.952849       12.084753       1
       14483.304       30.844963       11.371078       1
       14505.695       35.706544       12.071079       1
       14528.086       42.135620       12.516827       1
       14550.477       37.642381       12.091935       1
       14572.868       38.873699       12.496370       1
       14595.259       36.753260       12.096544       1
       14617.650       38.579379       12.433580       1
       14640.041       33.005713       12.046587       1
       14662.432       34.288788       12.370898       1
       14684.824       35.974772       12.089667       1
       14707.215       37.968084       12.451724       1
       14729.606       40.002720       12.176340       1
       14751.997       34.678683       12.428004       1
       14774.388       37.699507       12.065217       1
       14796.779       31.754358       12.434796       1
       14819.170       35.159286       12.070911       1
       14841.561       45.081545       11.763281       1
       14863.952       45.804399       12.156812       1
       14886.343       30.580691       10.413131       1
       14908.734       38.657303       11.979593       1
       14931.125       31.944504       11.451268       1
       14953.516       39.899078       11.940534       1
       14975.907       31.904918       12.293347       1
       14998.298       34.412244       11.808207       1
       15020.690       36.671432       12.310120       1
       15043.081       44.393617       11.918613       1
       15065.472       39.668767       12.279973       1
       15087.863       33.795699       11.791956       1
       15110.254       41.925091       12.342391       1
       15132.645       46.290741       11.843609       1
       15155.036       37.707885       12.197872       1
       15177.427       41.652672       11.829158       1
       15199.818       33.140436       12.145835       1
       15222.209       48.674375       11.743409       1
       15244.600       38.760081       12.236944       1
       15266.991       37.114548       11.651555       1
       15289.382       39.832510       12.227791       1
       15311.773       41.201311       11.648955       1
       15334.165       29.197172       12.090817       1
       15356.556       36.811068       11.743859       1
       15378.947       35.355738       12.212335       1
       15401.338       38.680975       11.776975       1
       15423.729       38.711991       12.141848       1
       15446.120       40.540215       11.789830       1
       15468.511       43.248760       12.211472       1
       15490.902       42.871899       11.828498       1
       15513.293       43.083633       12.250060       1
       15535.684       45.217841       11.843801       1
       15558.075       51.879837       12.273887       1
       15580.466       30.452797       10.999099       1
       15602.857       38.460068       11.482550       1
       15625.248       43.143285       11.821863       1
       15647.640       41.218128       12.166096       1
       15670.031       44.663539       11.744235       1
       15692.422       42.899654       12.124590       1
       15714.813       37.965408       11.670296       1
       15737.204       35.180106       11.962402       1
       15759.595       29.323882       11.512378       1
       15781.986       47.825207       12.104151       1
       15804.377       42.519423       11.654526       1
       15826.768       44.682228       12.062520       1
       15849.159       46.203110       11.738794       1
       15871.550       31.794286       11.985308       1
       15893.941       31.985274       3034730.1       1
       15916.332       38.705669       12.058810       1
       15938.723       45.912847       11.776720       1
       15961.115       35.231888       11.232663       1
       15983.506       38.557571       11.685084       1
       16005.897       42.072068       12.099426       1
       16028.288       42.797532       11.724084       1
       16050.679       34.509514       12.075318       1
       16073.070       37.932907       10.974374       1
       16095.461       40.294291       12.177284       1
       16117.852       41.595573       11.029167       1
       16140.243       41.064923       12.253138       1
       16162.634       38.743132       11.748257       1
       16185.025       47.281881       12.407199       1
       16207.416       36.684519       11.929612       1
       16229.807       33.730796       11.500957       1
       16252.198       46.508557       12.074042       1
       16274.589       41.643683       12.500239       1
       16296.981       40.568585       12.109539       1
       16319.372       37.491257       12.534337       1
       16341.763       44.712637       12.179878       1
       16364.154       40.150626       12.584909       1
       16386.545       29.268553       10.372412       1
       16408.936       43.041106       12.620409       1
       16431.327       49.646994       12.092466       1
       16453.718       40.101780       12.661091       1
       16476.109       41.229530       12.434555       1
       16498.500       49.411193       13.199783       1
       16520.891       45.812290       13.132299       1
       16543.282       49.464906       14.125804       1
       16565.673       47.812684       14.238084       1
       16588.064       52.007149       15.751469       1
       16610.456       44.136600       16.031357       1
       16632.847       46.651707       18.154443       1
       16655.238       48.073238       18.964320       1
       16677.629       43.559892       19.974368       1
       16700.020       44.989927       23.457645       1
       16722.411       49.531821       27.529968       1
       16744.802       56.877407       29.944538       1
       16767.193       47.153329       35.160414       0
       16789.584       35.611766       38.227531       0
       16811.975       67.562025       45.558653       0
       16834.366       60.405239       48.999336       0
       16856.757       41.723692       52.353063       0
       16879.148       44.964105       60.749343       0
       16901.539       62.110865       70.614286       0
       16923.931      -10.399373       74.652890       0
       16946.322       85.057341       87.512628       0
       16968.713       103.49129       94.167212       0
       16991.104       101.56860       108.52401       0
       17013.495       147.17016       116.16540       0
       17035.886       51.187050       132.19332       0
       17058.277      -22.888980       140.22263       0
       17080.668       94.512633       164.48383       0
       17103.059       31.030925       178.43615       0
       17125.450      -2.2072780       213.55919       0
