#WAVELENGTH FLUX ERROR MASK
       7455.2037       61386.747       52168.351       0
       7467.2127      -14816.869       29306.243       0
       7479.2216      -9786.8731       24643.327       0
       7491.2306      -2966.7666       24131.691       0
       7503.2395      -5601.1049       19163.910       0
       7515.2485      -3838.5015       17153.245       0
       7527.2574      -10549.293       14556.361       0
       7539.2663      -12656.908       12216.673       0
       7551.2753      -2634.8170       9344.6514       0
       7563.2842       2195.5324       7841.3088       0
       7575.2932      -4560.2922       6049.2712       0
       7587.3021      -1194.8656       5036.2825       0
       7599.3111      -2199.2261       3736.3295       0
       7611.3200      -1011.3316       3504.8731       0
       7623.3290      -3578.6838       2653.7624       0
       7635.3379      -186.42887       2597.5962       0
       7647.3469      -1198.2313       2183.7555       0
       7659.3558      -171.44541       1930.2725       0
       7671.3648      -1049.7621       1573.6282       0
       7683.3737       257.08001       1350.2855       0
       7695.3826       50.222736       1042.0505       0
       7707.3916       103.78249       975.99077       0
       7719.4005      -797.37520       745.11711       0
       7731.4095       356.73858       776.15847       0
       7743.4184      -481.95740       604.14861       0
       7755.4274      -132.95150       615.55793       0
       7767.4363      -92.084534       556.07215       0
       7779.4453       108.34785       527.53820       0
       7791.4542      -90.792064       467.55725       0
       7803.4632       95.619464       438.73215       0
       7815.4721      -433.57964       470.19048       0
       7827.4810      -76.064056       353.84338       0
       7839.4900       274.10938       288.47039       0
       7851.4989       46.330337       284.07359       0
       7863.5079       88.368839       234.96044       0
       7875.5168      -29.355495       235.80550       0
       7887.5258       20.668612       197.48496       0
       7899.5347       149.90046       91461339.       0
       7911.5437      -52.185609       174.03846       0
       7923.5526       81.430845       186.41993       0
       7935.5616      -83.005987       171.25173       0
       7947.5705       1.0369179       168.61997       0
       7959.5795      -29.192498       142.18697       0
       7971.5884       3.5074549       154.26556       0
       7983.5973       58.049293       135.03187       0
       7995.6063       40.643194       143.70056       0
       8007.6152       77.461710       126.64277       0
       8019.6242      -53.480991       133.91980       0
       8031.6331       43.402615       118.19734       0
       8043.6421       17.835518       128.38781       0
       8055.6510      -40.674993       121.13774       0
       8067.6600      -60.934360       123.10442       0
       8079.6689       67.122467       110.36680       0
       8091.6779       89.332980       119.76504       0
       8103.6868       22.088389       106.76247       0
       8115.6957       51.147261       115.42692       0
       8127.7047       62.750369       101.83952       0
       8139.7136       49.451321       116.27258       0
       8151.7226       59.623614       98.494983       1
       8163.7315       86.394228       111.89681       1
       8175.7405       23.461670       94.718861       1
       8187.7494       66.347079       104.91083       1
       8199.7584      -10.016308       95.704067       1
       8211.7673       101.44617       94.083198       1
       8223.7763       5.4492549       87.361629       1
       8235.7852       25.206106       95.732199       1
       8247.7942       13.978007       92.320638       1
       8259.8031       18.593536       95.422743       1
       8271.8120      -3.0550437       88.187819       1
       8283.8210       49.764282       96.908647       1
       8295.8299       35.291314       81.841927       1
       8307.8389       2.0004282       82.651890       1
       8319.8478       25.116657       83.276852       1
       8331.8568       63.401501       80.066691       1
       8343.8657       44.295778       82.145349       1
       8355.8747      -6.0849336       77.327191       1
       8367.8836       13.335891       81.333667       1
       8379.8926       69.078560       76.129004       1
       8391.9015       58.741996       79.690346       1
       8403.9104       17.000416       74.058250       1
       8415.9194      -24.482373       71.714417       1
       8427.9283       85.798151       72.973072       1
       8439.9373      -3.1949314       80.105389       1
       8451.9462       17.555129       69.409873       1
       8463.9552       28.856784       64.687845       1
       8475.9641       27.791812       67.507270       1
       8487.9731       66.340984       61.493988       1
       8499.9820       31.160367       68.636097       1
       8511.9910      -4.2120292       57.331113       1
       8523.9999       42.899040       67.074711       1
       8536.0088       6.1295229       56.069135       1
       8548.0178       83.284370       64.479009       1
       8560.0267       46.867555       56.127181       1
       8572.0357      -27.830432       61.822244       1
       8584.0446      -18.579930       54.718913       1
       8596.0536       45.850473       62.138531       1
       8608.0625       31.627414       55.855695       1
       8620.0715       33.244650       61.659419       1
       8632.0804       25.755227       54.671696       1
       8644.0894       68.423718       61.730852       1
       8656.0983       38.421304       53.690607       1
       8668.1073       30.295023       60.382352       1
       8680.1162       100.49306       54.802307       1
       8692.1251       3.7934363       58.118885       1
       8704.1341       25.542522       51.332904       1
       8716.1430       49.984029       57.399045       1
       8728.1520       13.946114       50.220472       1
       8740.1609       108.19466       55.115393       1
       8752.1699       69.137806       49.010993       1
       8764.1788       18.589489       53.131833       1
       8776.1878       39.870988       48.379868       1
       8788.1967       43.210243       22726563.       1
       8800.2057       57.516228       48.267576       1
       8812.2146      -6.3703842       64.651049       1
       8824.2235       25.369073       45.081576       1
       8836.2325       49.961383       50.532083       1
       8848.2414       52.660278       44.425007       1
       8860.2504       19.123364       48.942089       1
       8872.2593       56.894023       43.811093       1
       8884.2683       24.159143       48.107493       1
       8896.2772       81.404256       43.553754       1
       8908.2862       1.2582040       47.062629       1
       8920.2951       59.136366       42.553877       1
       8932.3041      -3.3718640       46.120855       1
       8944.3130       65.031282       41.841911       1
       8956.3220       26.935362       45.852317       1
       8968.3309       37.712264       40.576474       1
       8980.3398       40.638161       44.983638       1
       8992.3488       47.850233       39.994354       1
       9004.3577       29.024552       15707066.       1
       9016.3667       23.913933       39.281792       1
       9028.3756       53.113780       44.060556       1
       9040.3846       61.267680       41.112082       1
       9052.3935       56.317154       44.189734       1
       9064.4025       40.194816       40.670416       1
       9076.4114       38.684801       43.177148       1
       9088.4204       63.960516       38.450462       1
       9100.4293       76.593653       43.846851       1
       9112.4382       47.124158       37.398568       1
       9124.4472       72.052335       42.066427       1
       9136.4561       31.482034       36.792302       1
       9148.4651       69.094655       41.398239       1
       9160.4740       32.374450       36.168040       1
       9172.4830       33.884826       39.951359       1
       9184.4919       13.633514       35.563177       1
       9196.5009       50.464938       39.239270       1
       9208.5098       28.536043       36.542518       1
       9220.5188       22.538657       38.490328       1
       9232.5277       26.744828       36.585176       1
       9244.5367       44.571992       38.501809       1
       9256.5456       28.993470       33.655073       1
       9268.5545       25.237546       37.841098       1
       9280.5635       53.220176       33.689154       1
       9292.5724       50.624766       37.467666       1
       9304.5814       49.671541       36.766031       1
       9316.5903       64.533878       37.141887       1
       9328.5993       32.662905       32.505495       1
       9340.6082       35.011639       36.774559       1
       9352.6172       26.421734       34.401572       1
       9364.6261       25.055159       36.048284       1
       9376.6351       21.929411       33.836564       1
       9388.6440       73.994648       36.745003       1
       9400.6529       39.622954       36.363620       1
       9412.6619       47.753198       35.641595       1
       9424.6708       35.503931       34.007340       1
       9436.6798       72.830775       35.446269       1
       9448.6887       55.110930       31.163063       1
       9460.6977       46.704768       34.696322       1
       9472.7066       39.472409       30.568139       1
       9484.7156       14.529764       34.009968       1
       9496.7245       66.303000       30.235691       1
       9508.7335       55.169020       34.031896       1
       9520.7424       36.743501       29.713901       1
       9532.7514       24.626341       29.830704       1
       9544.7603       48.965391       29.809480       1
       9556.7692       46.630605       33.787903       1
       9568.7782       38.054388       31.343482       1
       9580.7871       55.272449       33.050497       1
       9592.7961       61.880763       29.864867       1
       9604.8050       44.427158       32.939630       1
       9616.8140       79.181983       29.424399       1
       9628.8229       42.740786       32.237524       1
       9640.8319       51.775198       28.691012       1
       9652.8408       38.950392       31.721075       1
       9664.8498       45.980258       28.765574       1
       9676.8587       58.281131       31.686635       1
       9688.8676       40.837799       28.109630       1
       9700.8766       73.722353       31.973537       1
       9712.8855       77.198614       28.104859       1
       9724.8945       67.991179       32.801310       1
       9736.9034       58.333617       29.233485       1
       9748.9124       73.372562       31.375703       1
       9760.9213       29.384364       31.576947       1
       9772.9303       55.870014       30.779802       1
       9784.9392       59.741968       27.818628       1
       9796.9482       50.219423       30.408519       1
       9808.9571       38.177019       26.999410       1
       9820.9660       43.463000       30.382945       1
       9832.9750       56.206543       33.035245       1
       9844.9839       45.694918       30.296916       1
       9856.9929       54.011892       26.999036       1
       9869.0018       41.401237       30.233429       1
       9881.0108       70.713528       27.563819       1
       9893.0197       53.407608       29.839157       1
       9905.0287       69.976332       27.036022       1
       9917.0376       59.390997       29.890072       1
       9929.0466       57.171119       27.599506       1
       9941.0555       39.392789       27.508810       1
       9953.0645       66.006029       27.917058       1
       9965.0734       56.447348       29.533717       1
       9977.0823       57.518649       27.588087       1
       9989.0913       49.379086       28.946063       1
       10001.100       73.492497       26.323487       1
       10013.109       57.392186       29.003193       1
       10025.118       68.142407       25.865607       1
       10037.127       62.449239       28.515756       1
       10049.136       41.062610       25.643388       1
       10061.145       66.670706       26.408112       1
       10073.154       71.479323       32.573247       1
       10085.163       66.048382       29.695952       1
       10097.172       42.958693       29.046309       1
       10109.181       56.104809       25.547404       1
       10121.190       36.420103       27.529824       1
       10133.199       69.909818       33.722346       1
       10145.208       65.023095       25.130121       1
       10157.217       89.579742       28.720664       1
       10169.225       65.059929       25.121703       1
       10181.234       63.959494       28.287644       1
       10193.243       44.509951       24.527037       1
       10205.252       83.643616       28.402065       1
       10217.261       47.263591       25.857606       1
       10229.270       56.459080       27.606786       1
       10241.279       51.877492       24.142768       1
       10253.288       60.894883       25.713837       1
       10265.297       58.644913       23.935480       1
       10277.306       68.518391       27.118664       1
       10289.315       81.760684       26.462976       1
       10301.324       51.820649       26.736278       1
       10313.333       72.057404       27.891691       1
       10325.342       74.679987       27.235021       1
       10337.351       60.781557       23.504968       1
       10349.360       46.100987       23.387928       1
       10361.369       57.779387       25.382987       1
       10373.378       55.152769       26.237002       1
       10385.387       30.713887       24.645929       1
       10397.395       46.599873       25.908132       1
       10409.404       64.920124       23.123829       1
       10421.413       52.572758       26.079755       1
       10433.422       71.506506       24.845323       1
       10445.431       74.632670       26.241225       1
       10457.440       74.789483       23.208162       1
       10469.449       59.930523       26.121148       1
       10481.458       51.195957       22.937376       1
       10493.467       49.012659       25.560355       1
       10505.476       62.949683       22.948620       1
       10517.485       61.175116       26.037915       1
       10529.494       74.354152       23.299523       1
       10541.503       56.977045       25.559417       1
       10553.512       74.445889       23.360726       1
       10565.521       67.589329       26.124011       1
       10577.530       50.875295       22.583834       1
       10589.539       45.658040       22.035015       1
       10601.548       60.770657       23.125349       1
       10613.556       68.029159       26.091449       1
       10625.565       57.656252       22.868117       1
       10637.574       52.696791       25.474249       1
       10649.583       62.420935       22.833603       1
       10661.592       52.687777       25.380672       1
       10673.601       66.541378       22.396996       1
       10685.610       79.137947       25.523801       1
       10697.619       52.701152       24.016087       1
       10709.628       66.517609       25.150597       1
       10721.637       73.026785       23.522597       1
       10733.646       59.153419       25.011992       1
       10745.655       62.408161       22.270680       1
       10757.664       63.011378       25.131508       1
       10769.673       82.809475       23.253261       1
       10781.682       64.898802       24.887009       1
       10793.691       48.076181       23.379070       1
       10805.700       54.640140       25.120726       1
       10817.709       59.096735       25.786631       1
       10829.717       77.491909       25.209063       1
       10841.726       65.909055       21.927886       1
       10853.735       82.412384       24.949658       1
       10865.744       58.164470       26.173582       1
       10877.753       70.517263       24.718438       1
       10889.762       59.853798       21.923100       1
       10901.771       68.290991       24.452024       1
       10913.780       70.619725       21.611406       1
       10925.789       65.180496       24.087854       1
       10937.798       69.805756       21.489486       1
       10949.807       67.603679       24.148430       1
       10961.816       81.601288       21.892201       1
       10973.825       73.315566       24.436002       1
       10985.834       73.485307       23.743173       1
       10997.843       65.359298       24.297963       1
       11009.852       66.739772       23.044379       1
       11021.861       70.121920       24.580743       1
       11033.870       80.617080       21.516278       1
       11045.879       66.070586       24.765576       1
       11057.887       49.388640       21.611867       1
       11069.896       68.631619       24.308017       1
       11081.905       63.939283       21.451703       1
       11093.914       75.637340       24.140347       1
       11105.923       59.160174       21.401239       1
       11117.932       58.613182       23.954311       1
       11129.941       68.348994       21.757740       1
       11141.950       56.787263       23.811785       1
       11153.959       54.598809       21.629395       1
       11165.968       56.705841       23.825705       1
       11177.977       44.912626       20.975183       1
       11189.986       45.976903       23.734578       1
       11201.995       51.035317       21.346350       0
       11214.004       57.006704       24.100016       0
       11226.013       68.090077       21.167771       0
       11238.022       56.689220       24.178464       0
       11250.031       58.386280       21.140917       0
       11262.040       68.757417       24.201851       0
       11274.048       79.247635       21.247477       0
       11286.057       68.884703       24.264480       0
       11298.066       70.325475       21.427367       0
       11310.075       47.509628       20.192798       0
       11322.084       55.213393       21.306108       0
       11334.093       72.050779       24.243543       0
       11346.102       67.173988       21.159340       0
       11358.111       71.142166       24.281735       0
       11370.120       68.940832       21.651750       0
       11382.129       58.831712       24.469327       0
       11394.138       57.951320       22.147102       0
       11406.147       59.498696       26.112602       0
       11418.156       68.605427       23.978394       0
       11430.165       65.457462       28.515059       0
       11442.174       34.882994       29.641409       0
       11454.183       44.450213       33.363650       0
       11466.192       30.185010       32.481605       0
       11478.201       52.697411       41.000166       0
       11490.210       48.450220       41.207735       0
       11502.218       50.489007       52.338997       0
       11514.227       22.813773       51.889311       0
       11526.236       58.189055       66.025456       0
       11538.245       146.59740       67.331617       0
       11550.254       9.2556265       81.380042       0
       11562.263       9.8198317       85.697158       0
       11574.272      -4.0250708       98.271593       0
       11586.281       17.428089       103.99790       0
       11598.290       167.67249       128.64183       0
       11610.299      -12.553038       130.93858       0
       11622.308      -14.888981       209.88774       0
       11634.317       107.26213       198.36800       0
       11646.326       136.39876       258.23368       0
       11658.335      -12.329910       299.91515       0
       11670.344       315.55907       388.78631       0
       11682.353       173.75372       428.10262       0
       11694.362       55.807029       568.50718       0
       11706.371       276.28111       645.52614       0
       11718.379      -139.72041       811.90299       0
       11730.388       12.454191       926.97837       0
       11742.397       323.41589       1300.5601       0
       11754.406      -1034.4579       1542.4348       0
       11766.415      -872.17879       2137.3268       0
