#WAVELENGTH FLUX ERROR MASK
       7484.5072       4724.8035       17012.432       0
       7496.2541       13031.776       18734.190       0
       7508.0011      -1748.0037       12596.329       0
       7519.7481       7921.0716       13425.149       0
       7531.4950       3057.8834       10094.815       0
       7543.2420       3862.6943       9469.8868       0
       7554.9889       3825.9443       6954.5514       0
       7566.7359       707.46836       6038.3943       0
       7578.4828       701.87662       4075.5616       0
       7590.2298       741.69999       3957.4800       0
       7601.9768       1459.2502       2669.2610       0
       7613.7237       55.554655       2808.9074       0
       7625.4707       1868.4007       1959.3274       0
       7637.2176       2414.9345       2113.4839       0
       7648.9646       689.61585       1530.1909       0
       7660.7115       2144.5201       1579.4645       0
       7672.4585      -830.01522       1095.7128       0
       7684.2054       878.47018       1104.3245       0
       7695.9524       312.73747       780.47214       0
       7707.6994      -65.991610       870.44377       0
       7719.4463       533.04844       559.77378       0
       7731.1933       328.25287       615.30438       0
       7742.9402       22.854276       448.54484       0
       7754.6872       475.82236       515.36395       0
       7766.4341       54.629994       382.42517       0
       7778.1811      -186.15530       435.53025       0
       7789.9281       337.45169       328.25326       0
       7801.6750       71.575909       366.08067       0
       7813.4220       450.65764       272.27786       0
       7825.1689      -69.769661       297.94450       0
       7836.9159       149.31109       218.62603       0
       7848.6628       240.56703       244.64037       0
       7860.4098       36.145158       178.80435       0
       7872.1568      -39.163730       200.64323       0
       7883.9037       55.507434       151.20870       0
       7895.6507       231.94871       192.26446       0
       7907.3976       12.066019       133.36099       0
       7919.1446       189.25257       171.15877       0
       7930.8915       87.574378       126.11831       0
       7942.6385       89.454852       142.39589       0
       7954.3855       56.227665       110.53468       0
       7966.1324       81.842307       130.29061       0
       7977.8794       51.699923       101.29226       0
       7989.6263       46.129371       120.61986       0
       8001.3733       64.032446       94.806295       0
       8013.1202       98.396322       113.17348       0
       8024.8672       80.607563       93.871515       0
       8036.6141       36.067935       117.64412       0
       8048.3611       110.42520       85.902682       0
       8060.1081       141.37693       104.70686       0
       8071.8550       68.458622       82.480170       0
       8083.6020       223.38476       101.78450       0
       8095.3489       94.222125       80.001676       0
       8107.0959       65.263798       97.094293       0
       8118.8428       94.533398       77.129814       0
       8130.5898       70.017125       93.882112       0
       8142.3368       96.656165       74.781162       0
       8154.0837       85.361799       90.833118       1
       8165.8307      -10.859999       71.297107       1
       8177.5776       159.23246       88.770802       1
       8189.3246       119.33336       69.801162       1
       8201.0715       86.479808       85.020035       1
       8212.8185       112.05476       67.298267       1
       8224.5655       164.23081       82.079399       1
       8236.3124       24.953158       63.333178       1
       8248.0594       53.612905       76.662859       1
       8259.8063       73.933485       64.752926       1
       8271.5533       104.96030       73.989651       1
       8283.3002       95.555304       61.463985       1
       8295.0472       57.887231       70.065542       1
       8306.7942       50.811685       55.806466       1
       8318.5411       49.031296       67.401738       1
       8330.2881       42.415181       53.509806       1
       8342.0350       107.12810       65.839545       1
       8353.7820       79.485181       52.203640       1
       8365.5289       49.451948       71.740051       1
       8377.2759       39.046492       50.628080       1
       8389.0229       55.557413       70.324906       1
       8400.7698       75.592548       49.718558       1
       8412.5168       130.45793       60.952803       1
       8424.2637       80.738670       48.409615       1
       8436.0107       78.664292       58.964545       1
       8447.7576       60.951500       46.799922       1
       8459.5046       100.66886       57.534748       1
       8471.2515       79.803615       45.494060       1
       8482.9985       42.071632       55.061214       1
       8494.7455       51.632482       44.214448       1
       8506.4924       109.51120       54.713033       1
       8518.2394       81.898297       44.852867       1
       8529.9863       59.018677       53.114504       1
       8541.7333       42.864266       42.313806       1
       8553.4802       69.409405       52.278820       1
       8565.2272       61.037288       41.871240       1
       8576.9742       32.757195       51.405160       1
       8588.7211       83.807028       41.793230       1
       8600.4681       61.817158       51.356377       1
       8612.2150       87.407524       41.661411       1
       8623.9620       94.766573       51.624027       1
       8635.7089       74.560608       41.247593       1
       8647.4559       15.856313       49.952201       1
       8659.2029       93.409678       40.606580       1
       8670.9498       82.536555       49.838491       1
       8682.6968       46.496894       41.376264       1
       8694.4437       32.455702       51.990394       1
       8706.1907       84.073980       38.491031       1
       8717.9376       78.935784       46.672607       1
       8729.6846       60.663269       36.917676       1
       8741.4316       52.539998       44.694602       1
       8753.1785       58.024686       35.774433       1
       8764.9255       86.268226       44.015221       1
       8776.6724       66.645464       35.271233       1
       8788.4194       73.743029       43.111240       1
       8800.1663       49.182180       34.450720       1
       8811.9133       71.672449       42.360387       1
       8823.6603       42.816677       33.755102       1
       8835.4072       70.729510       41.640377       1
       8847.1542       54.490739       33.125909       1
       8858.9011       70.304039       40.611280       1
       8870.6481       41.038944       32.327230       1
       8882.3950       63.539569       39.608999       1
       8894.1420       47.958699       33.468107       1
       8905.8889       84.531888       40.559746       1
       8917.6359       84.580356       31.623058       1
       8929.3829       93.402301       38.818525       1
       8941.1298       50.101539       30.756379       1
       8952.8768       79.796057       38.189636       1
       8964.6237       65.563364       30.469834       1
       8976.3707       59.109795       36.911395       1
       8988.1176       62.316168       29.525721       1
       8999.8646       58.466397       36.348724       1
       9011.6116       35.303261       28.890761       1
       9023.3585       76.664117       36.257537       1
       9035.1055       51.986745       29.415700       1
       9046.8524       38.618961       35.552683       1
       9058.5994       65.665125       28.803586       1
       9070.3463       59.412495       35.534549       1
       9082.0933       58.675747       28.328736       1
       9093.8403       77.042170       38.012564       1
       9105.5872       54.502132       29.241093       1
       9117.3342       73.929841       34.505043       1
       9129.0811       59.596700       27.234353       1
       9140.8281       67.545066       33.525890       1
       9152.5750       63.549688       27.335375       1
       9164.3220       65.432814       33.029353       1
       9176.0690       68.120816       26.460924       1
       9187.8159       31.817483       32.117109       1
       9199.5629       58.326626       25.897743       1
       9211.3098       55.312751       31.793100       1
       9223.0568       81.063351       25.590960       1
       9234.8037       68.045826       34.766342       1
       9246.5507       65.677494       26.568073       1
       9258.2977       57.093241       31.027767       1
       9270.0446       81.075906       24.995078       1
       9281.7916       69.191484       30.710755       1
       9293.5385       69.795146       26.302065       1
       9305.2855       69.927326       34.284788       1
       9317.0324       80.218823       24.553826       1
       9328.7794       32.840459       29.926075       1
       9340.5263       64.222367       24.301986       1
       9352.2733       48.257920       29.832390       1
       9364.0203       72.054065       25.644724       1
       9375.7672       45.064564       29.448524       1
       9387.5142       48.863388       23.761807       1
       9399.2611       69.955139       29.433807       1
       9411.0081       65.345276       24.989684       1
       9422.7550       71.326889       32.829657       1
       9434.5020       71.134823       23.261399       1
       9446.2490       95.052891       28.864857       1
       9457.9959       48.526837       22.787843       1
       9469.7429       52.085086       29.288765       1
       9481.4898       64.208147       22.695531       1
       9493.2368       49.646226       27.795525       1
       9504.9837       67.168127       22.467560       1
       9516.7307       52.566345       27.891069       1
       9528.4777       50.406718       23.331371       1
       9540.2246       78.710586       30.958285       1
       9551.9716       34.257577       21.731269       1
       9563.7185       50.267380       26.870828       1
       9575.4655       45.224743       22.908178       1
       9587.2124       67.462187       26.822814       1
       9598.9594       41.511337       21.371964       1
       9610.7064       75.009760       26.554251       1
       9622.4533       46.873888       22.333435       1
       9634.2003       69.298745       29.686955       1
       9645.9472       48.965489       20.995975       1
       9657.6942       30.380671       25.727162       1
       9669.4411       59.757831       20.956517       1
       9681.1881       53.393612       25.702306       1
       9692.9350       57.223030       20.767599       1
       9704.6820       56.356413       25.643438       1
       9716.4290       61.702920       20.610963       1
       9728.1759       48.074215       25.205316       1
       9739.9229       35.384090       20.172339       1
       9751.6698       70.251001       25.224629       1
       9763.4168       56.944595       20.121210       1
       9775.1637       47.058674       24.712661       1
       9786.9107       45.462973       19.892545       1
       9798.6577       38.479540       24.461914       1
       9810.4046       39.231984       19.723851       1
       9822.1516       43.327720       24.360204       1
       9833.8985       45.432129       19.725561       1
       9845.6455       36.177340       24.183618       1
       9857.3924       46.001136       19.593609       1
       9869.1394       60.506987       24.480842       1
       9880.8864       62.367295       19.734277       1
       9892.6333       64.640321       24.437834       1
       9904.3803       59.108017       19.472039       1
       9916.1272       66.374898       24.213984       1
       9927.8742       40.235138       19.178095       1
       9939.6211       83.437084       24.324744       1
       9951.3681       58.821123       19.175894       1
       9963.1151       74.651445       24.016750       1
       9974.8620       49.604218       19.825100       1
       9986.6090       38.235094       23.177182       1
       9998.3559       59.486720       18.733983       1
       10010.103       77.510328       23.393750       1
       10021.850       45.356668       18.456714       1
       10033.597       55.479699       22.977361       1
       10045.344       58.871576       19.401661       1
       10057.091       53.352685       22.841432       1
       10068.838       50.662143       19.197046       1
       10080.585       60.202501       22.888855       1
       10092.332       57.096324       18.427096       1
       10104.079       50.002743       22.702277       1
       10115.825       61.216990       18.283380       1
       10127.572       45.780226       22.587551       1
       10139.319       78.227007       18.323745       1
       10151.066       73.605903       22.712850       1
       10162.813       61.399669       19.067147       1
       10174.560       64.243247       24.575672       1
       10186.307       70.269643       18.030355       1
       10198.054       45.419415       22.180232       1
       10209.801       65.414927       18.140329       1
       10221.548       70.042600       22.262693       1
       10233.295       64.602423       17.953184       1
       10245.042       68.322575       21.915690       1
       10256.789       60.254100       17.653236       1
       10268.536       75.851475       21.812826       1
       10280.283       67.179080       17.870594       1
       10292.030       55.801087       21.411790       1
       10303.777       74.429591       17.383187       1
       10315.524       37.386851       20.999914       1
       10327.271       66.562116       17.277912       1
       10339.018       78.190535       21.358489       1
       10350.765       56.867494       17.105346       1
       10362.512       68.981453       21.281286       1
       10374.259       72.907346       17.194747       1
       10386.005       56.162282       21.030948       1
       10397.752       46.223980       16.987840       1
       10409.499       73.115979       21.682087       1
       10421.246       52.975750       16.877088       1
       10432.993       68.289274       20.925328       1
       10444.740       72.528244       16.950925       1
       10456.487       67.408892       20.817424       1
       10468.234       63.897325       16.883714       1
       10479.981       76.393878       23.051813       1
       10491.728       68.243354       16.889156       1
       10503.475       61.095083       22.984349       1
       10515.222       62.200745       16.781698       1
       10526.969       63.496990       20.855036       1
       10538.716       54.442889       16.735874       1
       10550.463       48.170407       20.617727       1
       10562.210       62.155813       16.747052       1
       10573.957       65.438929       20.794030       1
       10585.704       59.357312       16.693322       1
       10597.451       65.908214       20.646013       1
       10609.198       64.252818       16.567932       1
       10620.945       68.654131       20.469981       1
       10632.692       68.859408       17.430174       1
       10644.439       67.310304       20.283662       1
       10656.186       71.350892       16.301819       1
       10667.932       45.315897       20.652955       1
       10679.679       55.193500       16.569136       1
       10691.426       75.553157       20.000714       1
       10703.173       66.474865       16.097316       1
       10714.920       62.452713       19.906540       1
       10726.667       67.349484       16.112584       1
       10738.414       70.292967       19.946478       1
       10750.161       66.037644       16.054181       1
       10761.908       60.107554       19.811170       1
       10773.655       68.832089       16.074767       1
       10785.402       51.073581       19.668531       1
       10797.149       49.517875       15.838569       1
       10808.896       58.108659       19.611799       1
       10820.643       63.171723       15.856745       1
       10832.390       78.303911       19.737312       1
       10844.137       80.633313       15.942031       1
       10855.884       70.389153       19.647286       1
       10867.631       58.125386       16.979240       1
       10879.378       54.285464       21.652474       1
       10891.125       47.570604       15.937205       1
       10902.872       57.492403       19.273440       1
       10914.619       65.226161       15.512756       1
       10926.366       56.434532       19.184176       1
       10938.112       67.786462       16.514931       1
       10949.859       51.296911       19.187254       1
       10961.606       71.367542       16.505311       1
       10973.353       77.810242       19.469388       1
       10985.100       86.561818       15.732124       1
       10996.847       78.472582       19.427460       1
       11008.594       53.616515       15.391825       1
       11020.341       63.272451       19.188023       1
       11032.088       76.972975       16.535163       1
       11043.835       72.216281       19.264637       1
       11055.582       72.248930       15.530887       1
       11067.329       71.324951       19.117285       1
       11079.076       70.245036       15.458825       1
       11090.823       69.183383       19.192989       1
       11102.570       50.526390       15.278684       1
       11114.317       73.780941       19.305374       1
       11126.064       46.001646       15.334705       1
       11137.811       56.567799       19.073172       1
       11149.558       63.995826       15.478077       1
       11161.305       65.709125       19.081562       1
       11173.052       69.231890       15.536517       1
       11184.799       52.343193       21.138361       1
       11196.546       64.735493       15.477121       1
       11208.292       77.754482       21.343492       0
       11220.039       75.750871       15.531401       0
       11231.786       81.887264       19.216900       0
       11243.533       80.646106       15.568575       0
       11255.280       63.922621       19.120935       0
       11267.027       67.535605       15.465283       0
       11278.774       65.249707       19.045396       0
       11290.521       65.689210       15.388735       0
       11302.268       77.601809       19.132709       0
       11314.015       66.666450       15.472759       0
       11325.762       56.055347       19.137767       0
       11337.509       67.762720       15.848261       0
       11349.256       64.745146       20.046601       0
       11361.003       75.070314       16.930847       0
       11372.750       68.834637       21.836264       0
       11384.497       61.037084       18.787249       0
       11396.244       43.564119       24.975553       0
       11407.991       56.066212       22.139086       0
       11419.738       84.876663       30.717488       0
       11431.485       55.782276       27.518367       0
       11443.232       56.675034       38.397011       0
       11454.979       92.130183       35.196965       0
       11466.726       65.063523       49.023933       0
       11478.472       58.754078       44.055549       0
       11490.219       125.79490       61.328814       0
       11501.966       43.627935       53.918322       0
       11513.713       44.947338       73.796622       0
       11525.460       27.108364       65.523635       0
       11537.207       85.128844       92.429348       0
       11548.954      -28.677923       84.499849       0
       11560.701       89.211334       124.17834       0
       11572.448       120.71800       119.33144       0
       11584.195      -177.11571       194.16393       0
       11595.942       105.61708       188.35669       0
       11607.689       169.25213       272.63275       0
       11619.436       45.069603       279.29912       0
       11631.183      -102.78949       401.48119       0
       11642.930      -183.41580       407.59800       0
       11654.677       164.79018       581.85626       0
       11666.424      -188.83658       591.78138       0
       11678.171      -208.19396       892.00457       0
       11689.918      -437.59053       924.08615       0
       11701.665       992.32216       1624.1523       0
