#WAVELENGTH FLUX ERROR MASK
       7455.2037      -53164.346       46197.114       0
       7467.2127       1912.4313       29844.851       0
       7479.2216      -2215.9214       25972.503       0
       7491.2306      -11407.115       24341.348       0
       7503.2395      -6164.6667       18557.538       0
       7515.2485      -8974.9174       17336.274       0
       7527.2574       5839.4717       13522.731       0
       7539.2663      -9978.2255       12408.668       0
       7551.2753      -5275.1862       8997.9072       0
       7563.2842      -305.90757       7908.8987       0
       7575.2932      -1367.7615       5917.2327       0
       7587.3021      -2883.2338       5059.2124       0
       7599.3111      -1963.4290       3786.9134       0
       7611.3200      -675.36787       3511.8207       0
       7623.3290       195.92590       2712.3619       0
       7635.3379       43.246097       2604.1091       0
       7647.3469      -326.12914       2190.9539       0
       7659.3558      -12.990182       1934.6714       0
       7671.3648      -471.46483       1506.7552       0
       7683.3737      -443.83471       1353.5867       0
       7695.3826      -359.11597       1026.1382       0
       7707.3916      -438.05458       957.90496       0
       7719.4005       197.99232       818.55638       0
       7731.4095       61.499031       743.42811       0
       7743.4184      -79.219845       601.23318       0
       7755.4274       66.048277       620.76769       0
       7767.4363      -190.86399       509.33772       0
       7779.4453      -95.541857       524.92682       0
       7791.4542      -121.95160       436.85628       0
       7803.4632       139.30797       438.47450       0
       7815.4721      -65.192641       368.39741       0
       7827.4810      -45.007257       368.17242       0
       7839.4900      -90.443648       297.15072       0
       7851.4989       381.15619       331.32781       0
       7863.5079       32.130963       237.15574       0
       7875.5168       119.89453       264.68751       0
       7887.5258       133.02388       201.61106       0
       7899.5347       17.944719       196.69119       0
       7911.5437       96.362091       207.18840       0
       7923.5526      -62.636898       185.30828       0
       7935.5616       7.6236521       172.93104       0
       7947.5705      -2.9931897       169.23824       0
       7959.5795      -21.398535       150.76205       0
       7971.5884       17.867615       142.64601       0
       7983.5973      0.33174381       132.20690       0
       7995.6063       55.769259       132.59733       0
       8007.6152       66.174248       136.80844       0
       8019.6242       11.050901       134.43354       0
       8031.6331      -62.563069       117.01516       0
       8043.6421       40.183176       128.78238       0
       8055.6510       51.065505       117.12989       0
       8067.6600      -23.332899       125.39069       0
       8079.6689      -33.407470       109.80606       0
       8091.6779       52.832324       121.66819       0
       8103.6868       88.100155       114.56614       0
       8115.6957      -12.293086       116.47194       0
       8127.7047       18.911586       107.61341       0
       8139.7136      -64.575554       112.76679       0
       8151.7226      -78.912802       105.87584       1
       8163.7315       31.616773       109.99412       1
       8175.7405       28.858703       100.60593       1
       8187.7494       51.070673       107.91907       1
       8199.7584      -6.4822229       96.006491       1
       8211.7673       27.240674       102.97182       1
       8223.7763       16.236029       88.264888       1
       8235.7852      -41.230597       95.967924       1
       8247.7942       18.185812       89.526799       1
       8259.8031       34.237632       92.339641       1
       8271.8120      -2.3219908       83.724694       1
       8283.8210      -4.7264961       85.152793       1
       8295.8299       27.807389       75.217838       1
       8307.8389      -34.534391       81.357083       1
       8319.8478       6.6537082       77.835655       1
       8331.8568      -25.982811       78.211473       1
       8343.8657       25.590072       84.888825       1
       8355.8747      -2.8595381       76.486360       1
       8367.8836      -16.566774       72.690010       1
       8379.8926       20.573387       77.886824       1
       8391.9015       45.762107       72.639887       1
       8403.9104       7.4081923       72.602823       1
       8415.9194      -19.008597       68.255416       1
       8427.9283       22.430206       70.893809       1
       8439.9373       13.575977       62.402131       1
       8451.9462      -17.317350       68.028862       1
       8463.9552      -7.6414289       68.427447       1
       8475.9641       14.064914       66.359740       1
       8487.9731       33.085605       58.682510       1
       8499.9820       31.156462       65.840180       1
       8511.9910       35.974733       58.281096       1
       8523.9999       43.069192       66.191574       1
       8536.0088       52.044407       65.756445       1
       8548.0178       38.747703       63.538422       1
       8560.0267       34.291972       55.392046       1
       8572.0357       28.730431       62.601900       1
       8584.0446       5.8087499       55.603501       1
       8596.0536      -15.593112       61.888512       1
       8608.0625       41.550025       55.370173       1
       8620.0715       7.2071026       61.738598       1
       8632.0804       21.802512       65.525991       1
       8644.0894       11.760002       61.341504       1
       8656.0983       8.8160827       53.546567       1
       8668.1073       26.347574       60.454708       1
       8680.1162      -9.1441373       55.210627       1
       8692.1251      -13.492951       58.048590       1
       8704.1341      -2.8857501       62.029671       1
       8716.1430       53.221151       56.885250       1
       8728.1520      -17.709620       51.683250       1
       8740.1609       8.3725514       54.313035       1
       8752.1699       4.7039822       47.979252       1
       8764.1788       40.312416       16389420.       1
       8776.1878       1.3788530       47.549488       1
       8788.1967       33.754370       52.031357       1
       8800.2057       8.0193240       46.812510       1
       8812.2146       9.0767636       51.234825       1
       8824.2235       7.9285620       45.024663       1
       8836.2325      -11.577043       49.695445       1
       8848.2414       1.9580836       43.712227       1
       8860.2504       24.485260       49.014055       1
       8872.2593       35.026294       44.836410       1
       8884.2683       40.992550       49.621347       1
       8896.2772       18.080853       42.381721       1
       8908.2862       31.230575       47.572794       1
       8920.2951       11.676101       43.772679       1
       8932.3041       21.517840       46.724082       1
       8944.3130       19.264175       41.805079       1
       8956.3220       25.284844       45.330367       1
       8968.3309       27.145374       42.447799       1
       8980.3398       23.843828       44.253669       1
       8992.3488      -4.3536820       38.658834       1
       9004.3577       39.282182       43.982436       1
       9016.3667       18.981174       40.559782       1
       9028.3756       39.393401       43.053388       1
       9040.3846       13.032639       38.131403       1
       9052.3935       27.553331       42.843153       1
       9064.4025       41.474031       38.247140       1
       9076.4114       34.711584       42.857580       1
       9088.4204      -6.3359289       39.334033       1
       9100.4293       36.881934       42.233607       1
       9112.4382       30.262063       43.047381       1
       9124.4472       19.801833       41.099306       1
       9136.4561       10.801772       35.865125       1
       9148.4651      -4.0325187       39.707710       1
       9160.4740       11.546541       34.991038       1
       9172.4830       19.964876       41.355800       1
       9184.4919       8.1823211       36.373136       1
       9196.5009       16.594257       39.587588       1
       9208.5098       29.905382       35.293091       1
       9220.5188       45.166786       39.540265       1
       9232.5277       14.964197       36.451696       1
       9244.5367       35.375211       38.596787       1
       9256.5456       37.358940       36.232099       1
       9268.5545       27.159857       12359897.       1
       9280.5635       17.094851       34.843119       1
       9292.5724       4.9359394       34.212486       1
       9304.5814       30.460561       33.670355       1
       9316.5903       31.885911       37.344435       1
       9328.5993     -0.13308629       34.633636       1
       9340.6082       31.349781       36.832386       1
       9352.6172      0.60757826       42.201850       1
       9364.6261       23.097408       37.033516       1
       9376.6351       32.389678       34.568015       1
       9388.6440       28.465605       35.949427       1
       9400.6529       7.7914792       31.795680       1
       9412.6619       16.454909       34.654304       1
       9424.6708       9.7686254       31.364688       1
       9436.6798       40.519158       35.083216       1
       9448.6887       27.523956       32.407637       1
       9460.6977       10.795010       32.407104       1
       9472.7066       16.995493       31.404214       1
       9484.7156       21.626743       34.059501       1
       9496.7245       26.663099       31.665024       1
       9508.7335       14.584653       31.839432       1
       9520.7424       31.716638       29.990507       1
       9532.7514       26.191326       33.433037       1
       9544.7603       35.495042       34.259162       1
       9556.7692       35.513020       33.233093       1
       9568.7782       14.757995       29.331632       1
       9580.7871       33.712265       33.115563       1
       9592.7961       41.064627       29.166794       1
       9604.8050       31.779586       32.816095       1
       9616.8140       8.8488083       28.583178       1
       9628.8229       16.768570       31.970581       1
       9640.8319       23.737586       31.028719       1
       9652.8408       30.388543       31.858398       1
       9664.8498       21.328511       29.595671       1
       9676.8587       43.401077       31.547705       1
       9688.8676       23.172630       29.627173       1
       9700.8766       18.505230       28.839862       1
       9712.8855       27.036411       27.804303       1
       9724.8945       34.180837       31.026034       1
       9736.9034       11.495895       30.278594       1
       9748.9124       26.949647       9440455.1       1
       9760.9213       21.352915       32.537458       1
       9772.9303       35.709971       30.524134       1
       9784.9392       11.286841       29.472018       1
       9796.9482       19.685113       30.244072       1
       9808.9571       34.561201       27.098348       1
       9820.9660       16.498997       27.717123       1
       9832.9750       37.523567       27.167852       1
       9844.9839       26.314966       30.356591       1
       9856.9929       12.607429       28.323820       1
       9869.0018       39.108711       31.364521       1
       9881.0108       31.605257       29.640961       1
       9893.0197       19.488590       30.144780       1
       9905.0287       25.226496       28.569687       1
       9917.0376       23.731147       30.019612       1
       9929.0466       9.0694952       26.777147       1
       9941.0555       26.848355       29.899038       1
       9953.0645       22.371828       26.594660       1
       9965.0734       46.046464       30.192498       1
       9977.0823       18.056036       26.871902       1
       9989.0913       52.106706       29.786788       1
       10001.100       26.746086       30.824989       1
       10013.109       30.541601       29.646065       1
       10025.118       40.899701       26.997381       1
       10037.127       51.542570       9223667.0       1
       10049.136       22.715321       25.601808       1
       10061.145       19.640336       27.626117       1
       10073.154       29.993139       24.607450       1
       10085.163       23.607009       27.573873       1
       10097.172       10.041240       27.053416       1
       10109.181       26.118656       27.638489       1
       10121.190       33.713256       25.404452       1
       10133.199       39.166206       27.535775       1
       10145.208       39.823551       24.483116       1
       10157.217       24.324843       27.273001       1
       10169.225       15.790064       23.866569       1
       10181.234       12.205181       27.056778       1
       10193.243       10.991104       25.210335       1
       10205.252       36.466255       27.320618       1
       10217.261       12.044190       25.107334       1
       10229.270       24.663851       26.805857       1
       10241.279       39.991800       23.953808       1
       10253.288       41.774351       26.780047       1
       10265.297       32.418848       23.780832       1
       10277.306       23.278968       26.328739       1
       10289.315       45.110481       24.757763       1
       10301.324       26.637293       26.386207       1
       10313.333       27.443832       24.797646       1
       10325.342       35.706025       26.234986       1
       10337.351       29.280205       25.914212       1
       10349.360       34.266767       26.057169       1
       10361.369       32.053674       23.229186       1
       10373.378       18.036207       25.913290       1
       10385.387       43.579754       23.404940       1
       10397.395       16.060485       25.578801       1
       10409.404       18.388026       23.277343       1
       10421.413       29.731674       25.743707       1
       10433.422       42.989973       23.069205       1
       10445.431       29.201590       25.809482       1
       10457.440       35.285520       22.730150       1
       10469.449       19.151196       25.418522       1
       10481.458       31.499530       22.733119       1
       10493.467       26.308186       24.222006       1
       10505.476       39.643087       23.127715       1
       10517.485       34.153691       25.685016       1
       10529.494       27.438704       22.920601       1
       10541.503       12.535760       23.377390       1
       10553.512       26.871690       22.653620       1
       10565.521       22.484111       25.572057       1
       10577.530       32.771830       24.509868       1
       10589.539       23.255191       25.427881       1
       10601.548       31.994010       22.732236       1
       10613.556       30.566047       27.611965       1
       10625.565       27.794269       22.827532       1
       10637.574       33.776559       26.225062       1
       10649.583       31.998320       22.780568       1
       10661.592       24.650291       24.873014       1
       10673.601       40.195720       22.839479       1
       10685.610       26.608397       24.680258       1
       10697.619       33.834846       22.015388       1
       10709.628       31.269238       24.664866       1
       10721.637       29.142578       21.919446       1
       10733.646       38.452161       24.219501       1
       10745.655       29.360394       21.331168       1
       10757.664       39.774241       24.161268       1
       10769.673       30.037987       21.401553       1
       10781.682       23.042489       24.022865       1
       10793.691       23.751221       21.235007       1
       10805.700       34.091489       24.134889       1
       10817.709       32.304449       22.257659       1
       10829.717       12.396279       22.396944       1
       10841.726       38.837183       21.344930       1
       10853.735       26.813159       23.989739       1
       10865.744       38.076029       21.352929       1
       10877.753       24.120207       23.650592       1
       10889.762       42.893009       21.513825       1
       10901.771       22.183137       21.181919       1
       10913.780       19.343137       20.899571       1
       10925.789       55.603785       23.673775       1
       10937.798       42.769207       20.960917       1
       10949.807       38.503322       24.021300       1
       10961.816       33.572744       23.494857       1
       10973.825       35.147749       24.271158       1
       10985.834       25.360701       21.510621       1
       10997.843       21.458612       24.100139       1
       11009.852       43.730258       21.666488       1
       11021.861       28.754703       24.278956       1
       11033.870       24.265249       21.949941       1
       11045.879       27.414184       24.073317       1
       11057.887       28.401155       21.564383       1
       11069.896       30.626150       24.058397       1
       11081.905       19.489868       23.212680       1
       11093.914       28.608688       24.248311       1
       11105.923       33.886195       21.423851       1
       11117.932       42.421785       24.384465       1
       11129.941       29.428019       21.300478       1
       11141.950       37.053897       25.382514       1
       11153.959       33.546627       21.685851       1
       11165.968       29.823242       24.111611       1
       11177.977       17.457158       21.842979       1
       11189.986       14.356678       23.363658       1
       11201.995       36.230156       22.082872       0
       11214.004       36.275182       23.861825       0
       11226.013       30.153879       24.790995       0
       11238.022       25.294317       23.674294       0
       11250.031       39.691887       22.962002       0
       11262.040       30.772900       21.977409       0
       11274.048       24.129435       20.593371       0
       11286.057       36.839019       23.838663       0
       11298.066       36.315283       22.020167       0
       11310.075       40.077298       23.654964       0
       11322.084       26.498869       21.939826       0
       11334.093       22.938284       23.534389       0
       11346.102       18.936623       22.649501       0
       11358.111       29.610843       23.607051       0
       11370.120       29.719591       22.129563       0
       11382.129       17.407324       23.932027       0
       11394.138       35.575210       22.959416       0
       11406.147       35.366388       26.402430       0
       11418.156       36.318981       23.709904       0
       11430.165       28.426573       24.434595       0
       11442.174       25.991110       26.978512       0
       11454.183       31.588520       33.217657       0
       11466.192       33.289357       32.617112       0
       11478.201       39.966033       40.719119       0
       11490.210       22.319164       43.608172       0
       11502.218       25.624606       53.327266       0
       11514.227       30.694527       52.268355       0
       11526.236       65.506467       66.845826       0
       11538.245       9.8962216       71.792638       0
       11550.254       21.248611       76.723261       0
       11562.263       55.858034       80.585557       0
       11574.272       68.256944       99.833794       0
       11586.281       122.77312       100.23138       0
       11598.290       33.495098       125.50093       0
       11610.299      -4.1626561       138.04193       0
       11622.308       36.772831       182.47514       0
       11634.317      -140.71052       216.73958       0
       11646.326       101.44641       311.79099       0
       11658.335      -28.037088       296.68435       0
       11670.344      -35.366422       452.10819       0
       11682.353      -174.04684       432.63952       0
       11694.362      -515.17169       592.82864       0
       11706.371      -516.44824       670.39239       0
       11718.379      -55.390171       858.33109       0
       11730.388       252.75552       971.67515       0
       11742.397      -428.55546       1390.4290       0
       11754.406      -409.82599       1526.0957       0
       11766.415       177.87932       2172.7505       0
