#WAVELENGTH FLUX ERROR MASK
       7455.2037       54998.786       52536.584       0
       7467.2127      -8192.2000       29144.629       0
       7479.2216      -11631.554       26463.260       0
       7491.2306      -2572.7711       24212.031       0
       7503.2395       9020.5411       20996.892       0
       7515.2485       13122.618       17279.888       0
       7527.2574       12129.630       13124.494       0
       7539.2663       2373.2732       12343.654       0
       7551.2753       1646.2021       8811.8501       0
       7563.2842       3224.4291       7857.7392       0
       7575.2932       3001.6587       5578.1472       0
       7587.3021      -4108.3362       4978.1102       0
       7599.3111      -676.68548       4353.9529       0
       7611.3200      -502.64019       3611.1341       0
       7623.3290      -294.72859       3961.0969       0
       7635.3379      -404.64427       2684.2712       0
       7647.3469      -2473.2040       2307.5124       0
       7659.3558       487.56657       1989.3751       0
       7671.3648      -1635.9812       1459.2925       0
       7683.3737      -165.08338       1399.3461       0
       7695.3826       291.77357       1185.5020       0
       7707.3916       273.04431       993.70731       0
       7719.4005      -501.00332       860.83772       0
       7731.4095      -524.14870       757.90747       0
       7743.4184      -43.538316       622.00440       0
       7755.4274       70.514790       631.03014       0
       7767.4363       642.61240       551.63288       0
       7779.4453       146.70297       543.76612       0
       7791.4542      -166.99341       450.78651       0
       7803.4632      -308.65547       448.95735       0
       7815.4721      -42.654097       366.57445       0
       7827.4810      -260.76360       371.25062       0
       7839.4900       61.690522       296.57658       0
       7851.4989      -49.731077       291.14589       0
       7863.5079      -69.772190       245.83384       0
       7875.5168       71.302070       245.87690       0
       7887.5258       74.343382       207.62580       0
       7899.5347      -130.31381       213.03845       0
       7911.5437      -224.96279       199.36145       0
       7923.5526       42.871963       192.10058       0
       7935.5616       1.8973591       165.55191       0
       7947.5705       62.213835       175.44806       0
       7959.5795       164.34142       150.99632       0
       7971.5884      -93.215395       157.82598       0
       7983.5973      -41.111246       137.78619       0
       7995.6063       23.076659       147.97252       0
       8007.6152      -92.696237       127.45220       0
       8019.6242       8.4119109       138.24763       0
       8031.6331       45.820228       135.69145       0
       8043.6421       72.834864       132.54119       0
       8055.6510       198.74521       120.22004       0
       8067.6600       103.02013       125.06726       0
       8079.6689       63.495375       107.55320       0
       8091.6779       103.99144       120.31348       0
       8103.6868      -97.922885       104.41596       0
       8115.6957       37.750101       115.37604       0
       8127.7047       220.72115       102.33937       0
       8139.7136       45.421162       111.78733       0
       8151.7226       23.602338       97.820852       1
       8163.7315       11.192564       107.57238       1
       8175.7405      -41.014799       94.267194       1
       8187.7494       29.405801       104.58412       1
       8199.7584      -58.224754       88.189409       1
       8211.7673      -31.387689       100.07679       1
       8223.7763      -5.4129910       87.420806       1
       8235.7852       45.039171       74.554071       1
       8247.7942      -95.054738       96.818782       1
       8259.8031       63.456591       91.045421       1
       8271.8120       9.3568455       92.230918       1
       8283.8210       111.82356       87.329402       1
       8295.8299       43.896688       96.325221       1
       8307.8389      -83.839564       81.702100       1
       8319.8478       55.622077       73.010029       1
       8331.8568       28.290115       80.096114       1
       8343.8657     -0.50817268       70.343594       1
       8355.8747      -23.448155       77.168814       1
       8367.8836       57.634184       82.942215       1
       8379.8926       33.875670       75.752028       1
       8391.9015       8.4241224       66.561969       1
       8403.9104       42.287283       74.619133       1
       8415.9194       58.805492       65.453274       1
       8427.9283       41.255831       72.306944       1
       8439.9373       67.896103       63.351511       1
       8451.9462       37.920983       69.676867       1
       8463.9552       79.503258       62.147181       1
       8475.9641       89.144003       67.753271       1
       8487.9731       69.715067       60.362828       1
       8499.9820       96.516191       64.478008       1
       8511.9910       91.467133       56.531193       1
       8523.9999       65.849881       62.747689       1
       8536.0088       34.293286       54.519244       1
       8548.0178       79.616380       62.248375       1
       8560.0267       57.572913       53.382206       1
       8572.0357       77.419814       60.661585       1
       8584.0446       99.746977       54.105118       1
       8596.0536       58.781878       60.509579       1
       8608.0625       30.895179       53.080129       1
       8620.0715       73.910886       60.518343       1
       8632.0804       51.874176       52.424907       1
       8644.0894       49.026547       59.833848       1
       8656.0983       101.90360       52.844429       1
       8668.1073       89.692754       59.321936       1
       8680.1162       99.077105       52.127165       1
       8692.1251       61.104036       57.458209       1
       8704.1341       125.31618       50.238299       1
       8716.1430       98.846591       55.322774       1
       8728.1520       78.543135       48.134690       1
       8740.1609       59.837309       52.813775       1
       8752.1699       17.906410       46.439817       1
       8764.1788       85.757123       51.616358       1
       8776.1878       119.84089       46.550036       1
       8788.1967       40.025780       54.196492       1
       8800.2057       44.464868       48.029382       1
       8812.2146       63.351923       68.528158       1
       8824.2235       58.341891       43.423353       1
       8836.2325       62.339790       48.712304       1
       8848.2414       86.354737       43.109944       1
       8860.2504       26.511482       47.434523       1
       8872.2593       89.701913       41.930769       1
       8884.2683       109.43465       48.091854       1
       8896.2772       31.806341       40.669717       1
       8908.2862       53.989889       46.021343       1
       8920.2951       76.014208       40.546493       1
       8932.3041       39.287495       44.993488       1
       8944.3130       67.203301       41.853852       1
       8956.3220       79.945026       46.518250       1
       8968.3309       20.327171       44.770764       1
       8980.3398       119.27700       45.303791       1
       8992.3488       67.517475       39.658735       1
       9004.3577       93.850055       45.453576       1
       9016.3667       73.719523       38.902893       1
       9028.3756       72.288987       26950236.       1
       9040.3846       112.13227       40.212538       1
       9052.3935       72.046814       43.352384       1
       9064.4025       71.993883       39.169996       1
       9076.4114       72.394279       43.650323       1
       9088.4204       58.464381       38.296579       1
       9100.4293       90.277499       43.686393       1
       9112.4382       110.34833       38.062968       1
       9124.4472       69.280079       42.455293       1
       9136.4561       12.987009       36.412506       1
       9148.4651       64.780822       41.550164       1
       9160.4740       113.35675       36.796958       1
       9172.4830       70.604735       40.866667       1
       9184.4919       64.688197       36.060450       1
       9196.5009       58.932855       39.472173       1
       9208.5098       51.475371       34.890391       1
       9220.5188       11.312978       24.463958       1
       9232.5277       57.500437       34.517999       1
       9244.5367       86.464859       38.457478       1
       9256.5456       70.195948       33.892078       1
       9268.5545       106.88800       39.345178       1
       9280.5635       72.070511       33.728389       1
       9292.5724       72.443694       38.581690       1
       9304.5814       88.260825       39.323289       1
       9316.5903       68.111503       37.101586       1
       9328.5993       79.418073       33.538717       1
       9340.6082       91.661944       37.434971       1
       9352.6172       75.995756       32.797924       1
       9364.6261       55.724395       36.514895       1
       9376.6351       159.89035       39.368109       1
       9388.6440       22.446524       36.796673       1
       9400.6529       53.011698       37.006025       1
       9412.6619       50.396004       36.561054       1
       9424.6708       21.509988       32.778748       1
       9436.6798       89.084787       36.625859       1
       9448.6887       34.441639       35.831005       1
       9460.6977       67.910745       36.335962       1
       9472.7066       95.030916       32.641225       1
       9484.7156       92.431689       36.120800       1
       9496.7245       44.163204       33.813927       1
       9508.7335       83.654456       35.577870       1
       9520.7424       78.386798       31.438477       1
       9532.7514       104.70474       35.200500       1
       9544.7603       68.655436       30.507151       1
       9556.7692       97.337558       35.675638       1
       9568.7782       93.701464       31.006541       1
       9580.7871       77.467597       34.475265       1
       9592.7961       53.836532       30.212586       1
       9604.8050       66.333437       33.803402       1
       9616.8140       87.708071       30.151064       1
       9628.8229       107.25702       33.567915       1
       9640.8319       77.637304       29.896897       1
       9652.8408       76.668633       33.082257       1
       9664.8498       77.416682       29.568049       1
       9676.8587       35.049742       26.087036       1
       9688.8676       83.724590       32.697499       1
       9700.8766       82.058780       33.707468       1
       9712.8855       86.509387       31.746622       1
       9724.8945       77.380628       33.652568       1
       9736.9034       62.878978       28.954386       1
       9748.9124       83.682289       32.533606       1
       9760.9213       97.536961       29.561705       1
       9772.9303       18.612094       31.523853       1
       9784.9392       78.258205       31.507820       1
       9796.9482       71.567351       31.754388       1
       9808.9571       55.307089       34.065168       1
       9820.9660       104.90488       32.353577       1
       9832.9750       71.040993       34.199062       1
       9844.9839       85.725978       30.147330       1
       9856.9929       89.965319       30.083279       1
       9869.0018       71.054223       30.654808       1
       9881.0108       98.491864       28.306992       1
       9893.0197       88.795059       30.193842       1
       9905.0287       129.59428       28.154440       1
       9917.0376       97.557264       30.254199       1
       9929.0466       73.066930       26.421843       1
       9941.0555       120.46189       30.855922       1
       9953.0645       78.585836       26.869151       1
       9965.0734       87.026874       29.876887       1
       9977.0823       94.589981       27.194259       1
       9989.0913       81.550870       29.119967       1
       10001.100       88.087672       27.034681       1
       10013.109       60.722973       29.243026       1
       10025.118       64.620936       26.567731       1
       10037.127       118.75802       29.399469       1
       10049.136       90.677779       25.817591       1
       10061.145       82.223690       28.655461       1
       10073.154       82.188848       25.906440       1
       10085.163       84.103088       28.823438       1
       10097.172       111.99087       25.236413       1
       10109.181       90.018149       28.788318       1
       10121.190       74.091550       25.207616       1
       10133.199       67.072710       27.542475       1
       10145.208       85.946051       25.588854       1
       10157.217       95.257997       28.618869       1
       10169.225       104.95967       25.396753       1
       10181.234       115.54384       29.035136       1
       10193.243       95.980840       24.989885       1
       10205.252       115.36375       28.576242       1
       10217.261       133.78865       25.665011       1
       10229.270       126.77415       28.812536       1
       10241.279       88.503552       24.616952       1
       10253.288       79.814862       27.774042       1
       10265.297       84.694274       25.004969       1
       10277.306       95.672663       27.573613       1
       10289.315       84.194056       26.055571       1
       10301.324       86.015863       26.313362       1
       10313.333       110.55788       22.987558       1
       10325.342       65.616627       25.931996       1
       10337.351       86.564971       25.742342       1
       10349.360       95.992448       26.315723       1
       10361.369       93.945633       22.460689       1
       10373.378       98.722400       26.039837       1
       10385.387       81.234854       22.619292       1
       10397.395       93.853669       26.450153       1
       10409.404       103.16110       23.201824       1
       10421.413       100.87495       26.164397       1
       10433.422       83.138279       22.418844       1
       10445.431       80.660185       25.618600       1
       10457.440       94.869201       22.253751       1
       10469.449       82.012265       25.352937       1
       10481.458       84.276399       21.984429       1
       10493.467       113.88770       26.064622       1
       10505.476       88.678686       22.423851       1
       10517.485       84.979908       25.580903       1
       10529.494       85.064414       24.583879       1
       10541.503       97.862996       25.599098       1
       10553.512       86.110463       22.597356       1
       10565.521       91.764804       25.609262       1
       10577.530       115.59998       22.840913       1
       10589.539       87.698666       25.599896       1
       10601.548       97.565549       22.305820       1
       10613.556       76.878847       25.480198       1
       10625.565       83.151548       21.943971       1
       10637.574       104.81325       25.840814       1
       10649.583       100.88492       22.333123       1
       10661.592       125.18856       25.560043       1
       10673.601       91.393500       21.716984       1
       10685.610       96.277938       24.978517       1
       10697.619       101.16612       21.800564       1
       10709.628       83.019186       24.925987       1
       10721.637       86.701287       21.393032       1
       10733.646       82.730538       25.174399       1
       10745.655       121.31388       23.093140       1
       10757.664       126.73525       26.350647       1
       10769.673       95.148972       22.297827       1
       10781.682       93.228660       25.580776       1
       10793.691       95.564233       22.475459       1
       10805.700       100.29970       25.313024       1
       10817.709       69.073245       21.617911       1
       10829.717       98.817092       25.189575       1
       10841.726       91.640070       25.925205       1
       10853.735       138.75343       25.826201       1
       10865.744       82.090960       25.079874       1
       10877.753       126.55320       25.288966       1
       10889.762       106.92752       22.253957       1
       10901.771       159.87119       25.578304       1
       10913.780       124.26276       22.368681       1
       10925.789       96.323540       25.068927       1
       10937.798       93.625143       21.708854       1
       10949.807       89.767976       24.477297       1
       10961.816       99.078171       21.599603       1
       10973.825       109.71583       25.095686       1
       10985.834       116.69393       22.380700       1
       10997.843       85.587364       24.573326       1
       11009.852       90.778167       22.504543       1
       11021.861       126.32706       25.308965       1
       11033.870       144.09353       22.952834       1
       11045.879       115.24968       25.171021       1
       11057.887       100.47842       22.108664       1
       11069.896       75.546309       24.407517       1
       11081.905       87.273665       21.501505       1
       11093.914       95.508301       24.937910       1
       11105.923       126.91593       22.227428       1
       11117.932       100.83047       24.408271       1
       11129.941       92.881709       23.020408       1
       11141.950       89.199784       24.135245       1
       11153.959       79.662597       21.455492       1
       11165.968       81.496821       23.991334       1
       11177.977       113.15487       22.470992       1
       11189.986       85.450411       25.025303       1
       11201.995       86.893358       22.396487       0
       11214.004       101.81615       25.365069       0
       11226.013       72.367871       29.627916       0
       11238.022       86.658287       25.143651       0
       11250.031       51.121946       21.507028       0
       11262.040       78.795117       24.447224       0
       11274.048       93.051197       22.044599       0
       11286.057       98.990107       24.849964       0
       11298.066       81.051658       24.834779       0
       11310.075       64.125829       20.240773       0
       11322.084       100.78536       22.621514       0
       11334.093       74.750577       24.960461       0
       11346.102       100.65681       22.521758       0
       11358.111       101.87880       25.272137       0
       11370.120       94.140896       22.954528       0
       11382.129       74.211934       25.448485       0
       11394.138       69.803682       23.307192       0
       11406.147       106.85102       27.344024       0
       11418.156       96.756806       25.034750       0
       11430.165       85.247737       29.948030       0
       11442.174       96.932754       28.841573       0
       11454.183       76.916389       34.800643       0
       11466.192       79.802794       34.225188       0
       11478.201       97.017162       43.179515       0
       11490.210       103.13625       46.353495       0
       11502.218       58.170241       46.383899       0
       11514.227       53.891311       54.163949       0
       11526.236       107.84308       68.972285       0
       11538.245       133.79073       70.184422       0
       11550.254      -33.096510       82.093960       0
       11562.263       50.943865       83.278422       0
       11574.272       30.788984       101.46119       0
       11586.281       74.802897       112.33396       0
       11598.290       59.475697       129.67961       0
       11610.299       63.410183       135.79281       0
       11622.308      -36.894078       194.37367       0
       11634.317       33.712809       181.93515       0
       11646.326      -39.731855       252.58198       0
       11658.335       227.87500       290.93209       0
       11670.344       133.05320       297.19236       0
       11682.353       37.543070       412.55713       0
       11694.362      -64.877739       568.30303       0
       11706.371       483.18060       615.33690       0
       11718.379       603.91876       824.36644       0
       11730.388      -933.99359       899.14735       0
       11742.397      -911.52964       1288.2152       0
       11754.406       624.08712       1716.1467       0
       11766.415       479.28237       2057.4139       0
