#WAVELENGTH FLUX ERROR MASK
       7494.8026       19184.939       366.69051       0
       7506.9244      -7342.4033       263.56047       0
       7519.0463       2527.5367       305.70700       0
       7531.1681       3287.5490       228.58917       0
       7543.2900       5657.5179       261.65298       0
       7555.4118       5279.8515       183.36369       0
       7567.5337       2784.0611       204.82040       0
       7579.6555       3053.4153       146.19411       0
       7591.7773       46.533445       157.83109       0
       7603.8992       4099.8267       148.87074       0
       7616.0210       1463.7711       132.89268       0
       7628.1429      -237.80297       104.25381       0
       7640.2647       1779.8010       115.49919       0
       7652.3866      -929.56904       89.527647       0
       7664.5084       1185.0090       97.753439       0
       7676.6302      -866.21449       75.049291       0
       7688.7521       1014.0759       79.484805       0
       7700.8739       316.61396       63.651170       0
       7712.9958      -17.363137       104.83359       0
       7725.1176      -420.27133       54.577345       0
       7737.2395      -130.34605       60.907458       0
       7749.3613       25.425670       49.580286       0
       7761.4831       735.92681       56.680158       0
       7773.6050      -31.745337       45.790924       0
       7785.7268      -104.45019       51.774053       0
       7797.8487       323.30588       42.126561       0
       7809.9705       94.156731       47.046590       0
       7822.0924       313.95796       38.161149       0
       7834.2142       16.733232       42.328502       0
       7846.3360       551.97600       34.502203       0
       7858.4579       296.68867       38.544765       0
       7870.5797       181.71361       30.614187       0
       7882.7016       343.03549       35.390194       0
       7894.8234       485.90106       28.235179       0
       7906.9453       144.52980       33.023248       0
       7919.0671       286.72121       27.416533       0
       7931.1890       497.21532       31.889509       0
       7943.3108       350.64752       26.265269       0
       7955.4326       257.92359       30.158187       0
       7967.5545       327.65908       25.098794       0
       7979.6763       203.29037       28.729023       0
       7991.7982       184.10984       23.812980       0
       8003.9200       1.5524533       27.420437       0
       8016.0419       281.93148       23.395025       0
       8028.1637       423.58172       27.479441       0
       8040.2855       259.63128       22.629795       0
       8052.4074       285.28627       27.770521       0
       8064.5292       214.96896       21.828802       0
       8076.6511       204.16722       27.029947       0
       8088.7729       324.11689       21.691668       0
       8100.8948       197.09108       26.672046       0
       8113.0166       306.29273       21.327335       0
       8125.1384       316.86400       26.406229       0
       8137.2603       239.60968       20.784114       0
       8149.3821       195.58536       26.125374       0
       8161.5040       306.96776       20.565901       1
       8173.6258       293.44268       25.475933       1
       8185.7477       285.01961       20.163224       1
       8197.8695       259.56109       24.840993       1
       8209.9913       372.14893       19.915942       1
       8222.1132       331.42691       24.650381       1
       8234.2350       271.56864       19.350251       1
       8246.3569       312.72206       24.029484       1
       8258.4787       268.00615       18.916072       1
       8270.6006       266.52871       23.831153       1
       8282.7224       280.59640       18.416965       1
       8294.8442       287.41404       22.813110       1
       8306.9661       309.70873       18.145529       1
       8319.0879       272.64539       22.828733       1
       8331.2098       382.48138       17.914569       1
       8343.3316       323.80144       22.231212       1
       8355.4535       276.07035       17.557314       1
       8367.5753       241.37346       22.159979       1
       8379.6971       350.68445       17.485881       1
       8391.8190       279.35800       21.574059       1
       8403.9408       241.71769       18.892685       1
       8416.0627       319.49586       21.448000       1
       8428.1845       321.71968       16.978843       1
       8440.3064       337.91117       21.068088       1
       8452.4282       264.98880       16.618913       1
       8464.5500       325.80039       20.884606       1
       8476.6719       274.53283       16.344055       1
       8488.7937       269.17424       20.387448       1
       8500.9156       285.71092       16.200731       1
       8513.0374       384.19534       21.139925       1
       8525.1593       327.96719       15.847574       1
       8537.2811       272.23577       20.525674       1
       8549.4029       311.52426       15.738141       1
       8561.5248       303.04783       20.531712       1
       8573.6466       361.39866       15.740936       1
       8585.7685       341.38914       20.717994       1
       8597.8903       274.30912       15.492711       1
       8610.0122       337.75110       20.573652       1
       8622.1340       352.53457       15.559786       1
       8634.2558       279.61977       20.181474       1
       8646.3777       275.78413       15.448127       1
       8658.4995       290.54471       20.214112       1
       8670.6214       388.96474       15.565056       1
       8682.7432       358.70135       20.329783       1
       8694.8651       362.09372       15.270117       1
       8706.9869       284.96984       19.631294       1
       8719.1087       371.51225       14.981147       1
       8731.2306       299.77004       19.457571       1
       8743.3524       289.21011       14.671856       1
       8755.4743       341.34144       19.296058       1
       8767.5961       254.13508       14.360349       1
       8779.7180       275.29373       19.503415       1
       8791.8398       278.34633       14.315932       1
       8803.9617       261.54302       18.831366       1
       8816.0835       257.79834       14.144637       1
       8828.2053       306.30690       18.727320       1
       8840.3272       315.25495       14.188181       1
       8852.4490       180.56019       18.108818       1
       8864.5709       306.85006       16.126413       1
       8876.6927       339.20217       18.483779       1
       8888.8146       281.33155       13.839728       1
       8900.9364       291.44499       18.113451       1
       8913.0582       255.68839       13.612329       1
       8925.1801       330.57875       18.296886       1
       8937.3019       270.68383       13.859519       1
       8949.4238       186.71306       17.483025       1
       8961.5456       333.95342       13.783598       1
       8973.6675       302.06964       17.781265       1
       8985.7893       259.02165       13.581592       1
       8997.9111       277.03449       16.999154       1
       9010.0330       285.33312       15.786544       1
       9022.1548       284.09058       17.018835       1
       9034.2767       292.11252       13.463049       1
       9046.3985       324.90976       17.045674       1
       9058.5204       316.80090       13.573089       1
       9070.6422       315.01612       16.877314       1
       9082.7640       309.21747       13.529037       1
       9094.8859       272.81484       16.608229       1
       9107.0077       313.20390       13.420454       1
       9119.1296       263.16242       21.464299       1
       9131.2514       313.04833       13.310044       1
       9143.3733       326.92144       16.570985       1
       9155.4951       251.66022       13.008646       1
       9167.6169       294.75400       16.291755       1
       9179.7388       291.41895       13.032396       1
       9191.8606       283.49758       16.138696       1
       9203.9825       295.97612       12.881334       1
       9216.1043       254.61101       16.004591       1
       9228.2262       254.86696       12.843827       1
       9240.3480       211.00866       15.970584       1
       9252.4698       256.92153       12.592993       1
       9264.5917       249.67501       15.737060       1
       9276.7135       224.68898       12.597662       1
       9288.8354       232.73768       15.621661       1
       9300.9572       258.69452       12.571600       1
       9313.0791       285.45739       15.699047       1
       9325.2009       274.56825       12.607168       1
       9337.3227       252.38352       15.884095       1
       9349.4446       287.48790       12.498406       1
       9361.5664       250.96963       15.715581       1
       9373.6883       303.17810       12.537197       1
       9385.8101       218.31579       15.512545       1
       9397.9320       282.49490       12.423028       1
       9410.0538       236.52316       15.534272       1
       9422.1756       227.92164       12.139537       1
       9434.2975       240.26077       15.269434       1
       9446.4193       272.16518       12.462432       1
       9458.5412       300.06363       14.870407       1
       9470.6630       292.30600       12.477101       1
       9482.7849       324.40480       14.900304       1
       9494.9067       236.60212       13.252742       1
       9507.0285       259.89932       14.419280       1
       9519.1504       282.29401       13.399500       1
       9531.2722       302.24309       14.616969       1
       9543.3941       295.74867       12.308684       1
       9555.5159       238.17779       14.298593       1
       9567.6378       249.92515       12.045285       1
       9579.7596       230.32852       14.236002       1
       9591.8814       267.78136       12.132463       1
       9604.0033       240.63022       14.238720       1
       9616.1251       255.87266       12.001471       1
       9628.2470       277.84490       14.295008       1
       9640.3688       300.67712       12.126917       1
       9652.4907       257.57763       14.195053       1
       9664.6125       278.02218       12.001296       1
       9676.7343       254.35767       14.073835       1
       9688.8562       272.07980       11.869069       1
       9700.9780       304.50692       14.229117       1
       9713.0999       279.39598       11.858002       1
       9725.2217       254.81579       14.040912       1
       9737.3436       210.88023       11.632144       1
       9749.4654       239.85928       13.967742       1
       9761.5873       252.89776       11.754332       1
       9773.7091       322.22384       14.213873       1
       9785.8309       246.15756       11.653587       1
       9797.9528       228.54375       13.810913       1
       9810.0746       265.42347       11.724049       1
       9822.1965       236.44387       13.773237       1
       9834.3183       264.15838       11.657935       1
       9846.4402       217.21468       13.693052       1
       9858.5620       259.42011       11.653273       1
       9870.6838       296.36965       13.878848       1
       9882.8057       261.86191       11.617582       1
       9894.9275       216.48410       13.638270       1
       9907.0494       272.70382       11.435034       1
       9919.1712       244.04502       14.454383       1
       9931.2931       312.87275       19.229366       1
       9943.4149       271.97210       14.427697       1
       9955.5367       269.54136       11.388720       1
       9967.6586       238.80181       14.009334       1
       9979.7804       258.74295       11.240513       1
       9991.9023       257.90795       14.221656       1
       10004.024       254.98321       11.168393       1
       10016.146       244.22858       13.930997       1
       10028.268       270.78162       11.174953       1
       10040.390       242.81770       14.068513       1
       10052.511       254.79804       11.134842       1
       10064.633       243.71372       13.999148       1
       10076.755       300.00354       11.293315       1
       10088.877       228.81841       13.764483       1
       10100.999       276.92054       11.245333       1
       10113.121       274.09555       14.014571       1
       10125.243       233.42917       11.000236       1
       10137.364       255.43344       13.799765       1
       10149.486       238.93318       11.150138       1
       10161.608       231.51070       13.731720       1
       10173.730       243.62134       10.988533       1
       10185.852       245.63152       13.969767       1
       10197.974       246.80755       10.976825       1
       10210.095       240.94729       13.654023       1
       10222.217       243.74931       10.941399       1
       10234.339       230.66192       13.785347       1
       10246.461       241.65909       10.857784       1
       10258.583       259.74622       13.646691       1
       10270.705       268.94806       10.922418       1
       10282.827       248.80074       13.696439       1
       10294.948       263.40187       10.845213       1
       10307.070       309.60565       13.752035       1
       10319.192       270.60814       10.813659       1
       10331.314       294.01099       13.714406       1
       10343.436       254.73122       10.737328       1
       10355.558       218.75534       13.297272       1
       10367.679       214.97813       10.585723       1
       10379.801       235.03559       13.703491       1
       10391.923       253.11336       10.463867       1
       10404.045       252.29983       13.879715       1
       10416.167       241.68543       10.398317       1
       10428.289       251.12141       14.377427       1
       10440.410       249.35926       12.189942       1
       10452.532       272.57693       13.777975       1
       10464.654       258.71051       10.546557       1
       10476.776       304.21486       14.052381       1
       10488.898       246.98787       10.444421       1
       10501.020       262.26398       14.317179       1
       10513.142       356.56054       10.864299       1
       10525.263       343.97099       14.074102       1
       10537.385       319.04079       10.779733       1
       10549.507       322.76045       14.077444       1
       10561.629       251.85711       10.504661       1
       10573.751       245.37595       14.279910       1
       10585.873       307.71879       10.705867       1
       10597.994       352.45156       14.225557       1
       10610.116       398.86837       11.024495       1
       10622.238       417.93607       14.447541       1
       10634.360       375.13651       13.679913       1
       10646.482       328.06576       13.989366       1
       10658.604       264.32873       13.105292       1
       10670.725       267.96048       13.706351       1
       10682.847       227.13990       10.256355       1
       10694.969       262.28695       13.610328       1
       10707.091       222.51377       10.477761       1
       10719.213       235.57480       13.978150       1
       10731.335       229.15138       10.316058       1
       10743.457       214.41820       13.391027       1
       10755.578       212.46268       10.224934       1
       10767.700       232.24235       13.431550       1
       10779.822       206.88180       10.212018       1
       10791.944       183.87129       13.801062       1
       10804.066       217.73535       10.236752       1
       10816.188       219.00873       13.463176       1
       10828.309       255.53407       10.422914       1
       10840.431       232.32552       13.125778       1
       10852.553       218.05808       10.439931       1
       10864.675       221.59651       12.963670       1
       10876.797       224.22510       10.394337       1
       10888.919       208.00995       13.047969       1
       10901.040       203.25649       10.243408       1
       10913.162       226.10864       12.939874       1
       10925.284       202.16632       10.232757       1
       10937.406       209.66725       12.830289       1
       10949.528       211.27802       11.915571       1
       10961.650       222.77240       12.917631       1
       10973.772       225.91835       10.302515       1
       10985.893       216.51086       12.828800       1
       10998.015       228.56998       10.290734       1
       11010.137       210.96382       12.994149       1
       11022.259       214.97918       10.266999       1
       11034.381       238.40744       12.978873       1
       11046.503       204.76007       10.273217       1
       11058.624       211.42944       12.743370       1
       11070.746       197.46031       12.689289       1
       11082.868       174.59716       12.612146       1
       11094.990       197.06813       10.166617       1
       11107.112       208.63292       13.028293       1
       11119.234       225.47479       10.270281       1
       11131.356       205.70115       12.654992       1
       11143.477       222.62785       10.198719       1
       11155.599       233.99051       12.842461       1
       11167.721       210.52205       10.149050       1
       11179.843       185.10693       12.849973       1
       11191.965       210.05194       10.234594       1
       11204.087       200.60323       12.670122       0
       11216.208       211.45504       10.226968       0
       11228.330       206.00986       12.726436       0
       11240.452       195.15522       10.181169       0
       11252.574       203.24686       12.717675       0
       11264.696       181.32310       10.116482       0
       11276.818       202.10975       12.701594       0
       11288.939       186.51718       10.134210       0
       11301.061       203.46146       12.297879       0
       11313.183       210.32334       10.369857       0
       11325.305       199.00894       12.412557       0
       11337.427       191.92401       10.495974       0
       11349.549       157.83147       12.570730       0
       11361.671       175.13200       10.851709       0
       11373.792       177.00741       13.175800       0
       11385.914       182.31649       11.474957       0
       11398.036       245.18877       14.554335       0
       11410.158       253.51686       12.859988       0
       11422.280       164.13468       15.746201       0
       11434.402       203.15082       14.169029       0
       11446.523       272.19989       18.138776       0
       11458.645       302.73692       16.135607       0
       11470.767       312.93599       20.257524       0
       11482.889       248.21667       17.804517       0
       11495.011       360.97624       22.149731       0
       11507.133       389.50872       19.903435       0
       11519.254       312.42121       24.523074       0
       11531.376       385.44587       22.291285       0
       11543.498       302.11018       27.520498       0
       11555.620       549.60891       26.049881       0
       11567.742       474.35877       33.468026       0
       11579.864       849.42121       41.266376       0
       11591.986       927.41038       41.907736       0
       11604.107       1278.2074       39.371276       0
       11616.229       211.33912       49.273948       0
       11628.351       1130.6442       47.382212       0
       11640.473       1041.2719       61.725368       0
       11652.595       1638.2311       57.194570       0
       11664.717       1766.0183       76.038217       0
       11676.838      -241.14867       69.995396       0
       11688.960       3405.6859       99.587426       0
       11701.082       3388.1045       93.737639       0
       11713.204       3284.5700       129.35538       0
       11725.326       1625.0015       121.46885       0
       11737.448       1544.5427       155.92815       0
       11749.570       7179.8177       137.61904       0
       11761.691       7046.2975       201.09414       0
       11773.813       536.76383       132.23302       0
       11785.935       9351.5177       165.67551       0
       11798.057       5188.7984       130.14666       0
       11810.179       4194.8435       167.46700       0
       11822.301       4579.9940       148.28549       0
       11834.422       10420.292       187.88952       0
       11846.544      -3712.8304       159.56674       0
