#WAVELENGTH FLUX ERROR MASK
       10234.505       2965.9322       195.12008       0
       10257.911       2797.6841       165.23551       0
       10281.317       1364.5964       166.45959       0
       10304.723       1551.3949       141.17917       0
       10328.129       659.66449       145.56781       0
       10351.535       319.12747       126.29171       0
       10374.941       1028.0117       133.14066       0
       10398.347       313.09790       114.83774       0
       10421.753       941.00154       120.82927       0
       10445.159       389.92720       102.67920       0
       10468.565       806.12740       104.42040       0
       10491.971       531.57432       87.728779       0
       10515.377       594.68586       86.734828       0
       10538.783       203.11379       74.176325       0
       10562.189       268.64586       74.101528       0
       10585.595       59.528358       64.756298       0
       10609.001       201.52154       65.731381       0
       10632.408       249.40724       58.157233       0
       10655.814       303.65472       59.192792       0
       10679.220       217.77915       51.679149       0
       10702.626       326.30193       51.978044       0
       10726.032       69.942360       11154507.       0
       10749.438       156.36686       43.069729       0
       10772.844       157.32136       36.588150       0
       10796.250       135.17420       35.903510       0
       10819.656       84.664424       30.940728       0
       10843.062       133.51500       30.913517       0
       10866.468       43.815784       27.261432       0
       10889.874       64.282571       27.786851       0
       10913.280       85.577251       25.185855       0
       10936.686       93.861190       26.132978       0
       10960.092       78.267943       23.409580       0
       10983.498       82.291121       24.319579       0
       11006.904       98.564860       21.912391       1
       11030.311       61.924152       22.644438       1
       11053.717       69.202498       20.368782       1
       11077.123       94.148827       21.730467       1
       11100.529       78.727348       19.440062       1
       11123.935       92.982844       20.809831       1
       11147.341       91.678423       18.933844       1
       11170.747       73.500990       20.192471       1
       11194.153       81.219424       18.504305       1
       11217.559       71.067810       19.790924       1
       11240.965       74.767570       18.205261       1
       11264.371       83.064462       19.651516       1
       11287.777       77.059359       18.058359       1
       11311.183       56.110739       18.016118       1
       11334.589       68.895599       17.809682       1
       11357.995       73.817214       19.266773       1
       11381.401       78.352402       17.690627       1
       11404.807       75.858310       19.090872       1
       11428.213       80.300370       17.589161       1
       11451.620       66.022638       18.903662       1
       11475.026       79.556330       17.449570       1
       11498.432       81.220179       18.932630       1
       11521.838       88.794969       17.531458       1
       11545.244       73.947466       18.826793       1
       11568.650       89.260107       17.417449       1
       11592.056       88.556343       18.798083       1
       11615.462       87.020125       17.327212       1
       11638.868       86.002742       18.653361       1
       11662.274       78.410245       17.104877       1
       11685.680       81.445093       18.391061       1
       11709.086       82.025982       16.886815       1
       11732.492       70.528057       17.965509       1
       11755.898       87.724990       16.787714       1
       11779.304       69.355045       17.099847       1
       11802.710       63.075567       16.389361       1
       11826.116       89.159852       17.839936       1
       11849.523       83.072787       16.401041       1
       11872.929       44.289378       16.604149       1
       11896.335       66.321407       16.096378       1
       11919.741       63.081286       17.347118       1
       11943.147       54.336269       15.968513       1
       11966.553       56.428440       17.244861       1
       11989.959       65.813493       15.954611       1
       12013.365       68.836299       17.288103       1
       12036.771       62.482350       15.828132       1
       12060.177       65.809423       17.111253       1
       12083.583       80.646849       15.804831       1
       12106.989       69.335175       17.034450       1
       12130.395       82.282463       15.724861       1
       12153.801       67.087344       16.944025       1
       12177.207       64.141332       15.612414       1
       12200.613       77.923236       16.742565       1
       12224.019       38.259855       14.362274       1
       12247.425       67.806518       16.545265       1
       12270.832       67.153698       15.435410       1
       12294.238       59.877336       16.349146       1
       12317.644       62.427297       15.368516       1
       12341.050       64.292230       16.353195       1
       12364.456       63.279989       15.236824       1
       12387.862       64.381960       16.233502       1
       12411.268       64.007120       15.183804       1
       12434.674       32.268400       15.060506       1
       12458.080       62.375774       15.084954       1
       12481.486       66.280308       16.213959       1
       12504.892       67.750886       15.335849       1
       12528.298       54.154727       16.008534       1
       12551.704       68.686884       15.070740       1
       12575.110       53.953375       15.928514       1
       12598.516       55.760231       14.918616       1
       12621.922       59.222086       15.965584       1
       12645.328       69.575260       14.997616       1
       12668.735       57.488432       15.928368       1
       12692.141       63.075130       14.839645       1
       12715.547       61.794513       15.872637       1
       12738.953       64.681439       14.765685       1
       12762.359       62.376726       15.981807       1
       12785.765       61.159719       14.533958       1
       12809.171       71.310102       15.998506       1
       12832.577       57.601515       14.467931       1
       12855.983       51.402516       15.791277       1
       12879.389       63.746332       14.510754       1
       12902.795       65.450848       15.872689       1
       12926.201       58.253157       14.248918       1
       12949.607       58.094844       15.758928       1
       12973.013       53.748750       14.197010       1
       12996.419       68.284071       15.684399       1
       13019.825       63.024271       14.245528       1
       13043.231       69.998291       15.587309       1
       13066.637       63.309806       14.181765       1
       13090.044       42.570395       14.177622       1
       13113.450       60.359345       14.132228       1
       13136.856       24.047737       12.676062       1
       13160.262       59.769024       13.988703       1
       13183.668       20.660562       12.600414       1
       13207.074       57.338962       13.907728       1
       13230.480       23.107910       12.573272       1
       13253.886       58.882523       13.870245       1
       13277.292       63.069302       15.169788       1
       13300.698       44.701977       13.774528       1
       13324.104       45.308308       14.158058       1
       13347.510       41.833437       12.897192       1
       13370.916       57.182010       14.943202       1
       13394.322       54.404368       13.652325       1
       13417.728       65.136357       14.965682       1
       13441.134       57.421361       13.624063       1
       13464.540       65.547563       14.873036       1
       13487.947       67.666065       13.748753       1
       13511.353       58.059165       14.741426       1
       13534.759       60.000201       13.593872       1
       13558.165       64.698199       14.705686       1
       13581.571       67.695339       13.675349       1
       13604.977       57.876600       14.683513       1
       13628.383       56.696949       13.520011       1
       13651.789       64.544876       14.779337       1
       13675.195       61.501911       13.589613       1
       13698.601       61.344571       14.713292       1
       13722.007       65.161969       13.694137       1
       13745.413       58.291343       14.809462       1
       13768.819       64.886748       13.781631       1
       13792.225       75.283430       15.045839       1
       13815.631       65.241525       13.762611       1
       13839.037       75.876995       15.011287       1
       13862.443       78.493606       13.876856       1
       13885.850       68.769132       14.855330       1
       13909.256       75.619385       13.693878       1
       13932.662       72.673478       14.786397       1
       13956.068       77.588770       13.601975       1
       13979.474       87.609033       14.861238       1
       14002.880       100.56535       13.825622       1
       14026.286       110.49486       15.016750       1
       14049.692       114.50645       13.869193       1
       14073.098       100.35424       14.865022       1
       14096.504       86.838889       13.589205       1
       14119.910       69.445130       14.499809       1
       14143.316       61.795318       13.266093       1
       14166.722       45.450007       13.274416       1
       14190.128       65.756690       13.302128       1
       14213.534       60.258285       14.311401       1
       14236.940       36.888583       11.553156       1
       14260.346       63.899764       14.313383       1
       14283.752       39.639243       11.533518       1
       14307.159       49.877060       13.227449       1
       14330.565       35.356040       11.477442       1
       14353.971       61.726415       14.184509       1
       14377.377       56.020018       13.167728       1
       14400.783       35.832532       13.014814       1
       14424.189       60.338723       3029729.1       1
       14447.595       51.714121       14.185153       1
       14471.001       47.801891       12.909851       1
       14494.407       47.567914       14.116051       1
       14517.813       47.256332       12.892538       1
       14541.219       31.582933       12.958025       1
       14564.625       39.950965       11.957293       1
       14588.031       37.151164       13.976929       1
       14611.437       46.709031       12.862417       1
       14634.843       46.499313       14.103924       1
       14658.249       52.914240       13.414968       1
       14681.655       28.500686       13.880962       1
       14705.062       50.906000       13.499062       1
       14728.468       37.678065       14.002570       1
       14751.874       53.808377       12.919115       1
       14775.280       43.351950       14.024458       1
       14798.686       46.850356       12.831128       1
       14822.092       47.670436       14.030897       1
       14845.498       34.523667       12.655934       1
       14868.904       47.345149       14.001423       1
       14892.310       46.549520       12.767826       1
       14915.716       47.639041       13.920029       1
       14939.122       52.778916       12.724834       1
       14962.528       43.758975       13.639702       1
       14985.934       45.828052       12.597946       1
       15009.340       46.469728       13.600796       1
       15032.746       43.407735       12.667906       1
       15056.152       41.357507       13.537402       1
       15079.558       48.663126       12.685211       1
       15102.964       44.243044       13.520909       1
       15126.371       39.352936       12.434472       1
       15149.777       52.616626       13.605124       1
       15173.183       40.601296       12.539412       1
       15196.589       43.798500       3177980.8       1
       15219.995       41.145679       12.557593       1
       15243.401       45.723328       13.467468       1
       15266.807       40.619739       12.539955       1
       15290.213       46.895118       13.538690       1
       15313.619       31.277055       11.677043       1
       15337.025       51.512938       13.573118       1
       15360.431       47.084949       12.583383       1
       15383.837       52.371997       13.617107       1
       15407.243       41.849438       12.596433       1
       15430.649       48.695456       13.535381       1
       15454.055       41.715335       12.633367       1
       15477.461       38.958302       13.507158       1
       15500.867       45.894056       12.696749       1
       15524.274       28.613180       12.620896       1
       15547.680       42.536258       12.664467       1
       15571.086       38.108788       13.589437       1
       15594.492       45.266533       12.652612       1
       15617.898       30.874512       2979012.9       1
       15641.304       40.132279       12.657810       1
       15664.710       39.841980       13.683431       1
       15688.116       32.873114       11.827704       1
       15711.522       48.767177       13.799526       1
       15734.928       46.634819       12.646792       1
       15758.334       45.122748       13.690704       1
       15781.740       47.350502       12.703153       1
       15805.146       46.653993       13.756802       1
       15828.552       45.550227       12.682002       1
       15851.958       37.714190       13.631599       1
       15875.364       52.462333       12.772704       1
       15898.770       50.853234       13.805854       1
       15922.176       47.348240       12.756583       1
       15945.583       40.020916       13.776475       1
       15968.989       47.959086       12.776733       1
       15992.395       49.669455       14.023700       1
       16015.801       50.250992       12.797482       1
       16039.207       44.909167       13.837752       1
       16062.613       52.320246       12.840579       1
       16086.019       31.877417       12.827187       1
       16109.425       41.953471       12.784317       1
       16132.831       40.845778       13.868985       1
       16156.237       48.996478       12.893147       1
       16179.643       42.052394       13.944993       1
       16203.049       33.329800       12.080527       1
       16226.455       46.126597       14.032671       1
       16249.861       29.816355       12.136805       1
       16273.267       41.359535       14.046527       1
       16296.673       33.704399       12.242300       1
       16320.079       42.400910       14.117412       1
       16343.486       45.493143       13.101459       1
       16366.892       49.457765       14.243497       1
       16390.298       35.784159       13.014262       1
       16413.704       42.692091       14.168478       1
       16437.110       40.636728       13.876500       1
       16460.516       38.821958       14.226329       1
       16483.922       43.006745       13.635173       1
       16507.328       41.132773       14.390535       1
       16530.734       43.532946       13.519688       1
       16554.140       27.236125       13.984030       1
       16577.546       47.006142       14.037716       1
       16600.952       53.947851       15.645330       1
       16624.358       34.504334       14.801219       1
       16647.764       21.020539       15.441483       1
       16671.170       56.425398       16.218509       1
       16694.576       47.910335       18.405389       1
       16717.982       53.409901       17.955508       1
       16741.388       65.699410       20.601153       1
       16764.795       51.888888       20.420479       0
       16788.201       78.003198       23.769173       0
       16811.607       77.980309       23.346332       0
       16835.013       56.177312       26.547310       0
       16858.419       92.595938       26.495525       0
       16881.825       76.372237       29.827601       0
       16905.231       115.74547       29.768011       0
       16928.637       114.55223       33.554137       0
       16952.043       123.83803       33.173112       0
       16975.449       117.95232       37.505091       0
       16998.855       150.83663       37.111980       0
       17022.261       158.27288       42.080994       0
       17045.667       71.139827       40.977170       0
       17069.073       243.32585       46.923573       0
       17092.479       295.24652       46.066253       0
       17115.885       242.03755       52.532653       0
       17139.291       142.59038       52.221712       0
       17162.698       329.48889       60.486226       0
       17186.104       246.41107       60.525571       0
       17209.510       167.29113       69.168135       0
       17232.916       353.21027       69.245337       0
       17256.322       470.29650       78.863139       0
       17279.728       419.48136       76.310263       0
       17303.134       665.42819       88.761097       0
       17326.540       274.58876       84.273552       0
       17349.946       346.64856       96.601579       0
       17373.352       322.11895       94.001423       0
       17396.758       122.03815       107.56677       0
       17420.164       987.49148       104.05408       0
       17443.570       1144.9308       119.61739       0
       17466.976       532.37667       115.55110       0
       17490.382      -129.05017       129.68026       0
       17513.788       1496.1880       141.67634       0
