#WAVELENGTH FLUX ERROR MASK
       7494.8026       3514.0925       363.45626       0
       7506.9244      -3455.5385       264.72516       0
       7519.0463      -2159.5529       303.57192       0
       7531.1681      -1554.2308       225.01755       0
       7543.2900       6436.5468       257.28536       0
       7555.4118       5699.6766       183.86948       0
       7567.5337       2182.1380       204.45564       0
       7579.6555       393.06339       145.63498       0
       7591.7773       1539.6406       189.32857       0
       7603.8992       2359.3283       124.96010       0
       7616.0210      -470.41742       139.97435       0
       7628.1429       452.05406       102.03442       0
       7640.2647       114.79937       119.52156       0
       7652.3866       1161.3483       88.820497       0
       7664.5084       483.76150       101.28428       0
       7676.6302       828.19471       74.716389       0
       7688.7521       749.27720       84.176776       0
       7700.8739       866.18986       62.635847       0
       7712.9958       360.78281       70.590447       0
       7725.1176      -19.331694       53.503423       0
       7737.2395       159.08862       64.177481       0
       7749.3613       924.57007       49.472928       0
       7761.4831       562.71097       58.659227       0
       7773.6050       451.58465       47.735326       0
       7785.7268       643.72837       54.357654       0
       7797.8487       387.48999       41.471143       0
       7809.9705       403.66486       49.388875       0
       7822.0924       298.41566       37.231261       0
       7834.2142       342.47283       44.658003       0
       7846.3360       371.65295       33.617094       0
       7858.4579       319.85064       40.047234       0
       7870.5797       293.40575       32.206437       0
       7882.7016       405.87111       37.010626       0
       7894.8234       412.21432       28.553909       0
       7906.9453       327.49984       34.696003       0
       7919.0671       304.78755       28.726077       0
       7931.1890       208.07697       32.627807       0
       7943.3108       243.73219       29.099987       0
       7955.4326       292.16640       31.240693       0
       7967.5545       343.17954       24.566682       0
       7979.6763       281.78411       30.046104       0
       7991.7982       316.17458       23.586927       0
       8003.9200       140.63024       29.250873       0
       8016.0419       222.42088       22.777543       0
       8028.1637       127.81963       28.124113       0
       8040.2855       266.52171       22.102146       0
       8052.4074       170.12790       27.204199       0
       8064.5292       200.70829       21.864133       0
       8076.6511       285.74598       27.267391       0
       8088.7729       228.36734       21.452453       0
       8100.8948       235.47497       26.696233       0
       8113.0166       247.95368       21.168446       0
       8125.1384       154.93313       26.368354       0
       8137.2603       280.72540       20.857960       0
       8149.3821       215.63220       25.615731       0
       8161.5040       278.90023       20.547744       1
       8173.6258       265.12553       25.846067       1
       8185.7477       235.46608       20.079519       1
       8197.8695       377.81206       25.223649       1
       8209.9913       285.56313       19.819237       1
       8222.1132       248.72887       24.416567       1
       8234.2350       213.88765       19.177928       1
       8246.3569       312.95878       24.024372       1
       8258.4787       275.10061       18.838529       1
       8270.6006       257.50551       23.196283       1
       8282.7224       242.00452       18.459693       1
       8294.8442       283.61286       22.745837       1
       8306.9661       303.32336       18.134373       1
       8319.0879       260.15622       22.444374       1
       8331.2098       205.69573       18.417213       1
       8343.3316       265.83297       22.021084       1
       8355.4535       236.98220       18.132576       1
       8367.5753       264.82300       21.805187       1
       8379.6971       274.34864       17.292833       1
       8391.8190       308.07972       21.617387       1
       8403.9408       267.91357       18.460344       1
       8416.0627       308.35148       21.329626       1
       8428.1845       241.95729       16.836127       1
       8440.3064       247.46005       20.832201       1
       8452.4282       215.21102       16.509003       1
       8464.5500       210.01158       20.484319       1
       8476.6719       262.80108       16.318974       1
       8488.7937       263.08588       20.426825       1
       8500.9156       219.83556       16.054778       1
       8513.0374       235.49987       20.192362       1
       8525.1593       242.18214       15.954135       1
       8537.2811       245.75490       20.098967       1
       8549.4029       296.84731       16.022810       1
       8561.5248       196.50144       19.920533       1
       8573.6466       262.15271       15.906259       1
       8585.7685       271.67474       12042644.       1
       8597.8903       281.06134       15.813756       1
       8610.0122       253.86449       19.706437       1
       8622.1340       296.15904       19.151660       1
       8634.2558       235.15733       19.688526       1
       8646.3777       309.78254       15.829225       1
       8658.4995       294.89595       19.672658       1
       8670.6214       281.75163       15.592615       1
       8682.7432       250.92586       19.201117       1
       8694.8651       268.38227       15.420049       1
       8706.9869       222.63821       18.993283       1
       8719.1087       275.01732       15.070841       1
       8731.2306       249.42702       18.593487       1
       8743.3524       272.71345       14.883832       1
       8755.4743       206.73446       18.157887       1
       8767.5961       236.97048       16.643499       1
       8779.7180       209.52266       18.016257       1
       8791.8398       216.95504       14.366690       1
       8803.9617       258.80446       21.435655       1
       8816.0835       232.39824       14.335325       1
       8828.2053       217.82999       17.812871       1
       8840.3272       260.44344       14.260655       1
       8852.4490       236.36366       17.564915       1
       8864.5709       247.27571       14.953618       1
       8876.6927       242.69759       17.593520       1
       8888.8146       237.27657       13.968527       1
       8900.9364       228.51074       17.584544       1
       8913.0582       268.33805       13.984227       1
       8925.1801       259.84297       17.379432       1
       8937.3019       225.18914       13.692072       1
       8949.4238       223.41285       17.412729       1
       8961.5456       265.37406       13.770236       1
       8973.6675       292.32105       17.229663       1
       8985.7893       293.55702       13.718993       1
       8997.9111       254.94385       16.896619       1
       9010.0330       196.63588       15.403838       1
       9022.1548       212.39917       16.637006       1
       9034.2767       260.13747       13.466550       1
       9046.3985       252.61193       16.788426       1
       9058.5204       227.34066       13.322141       1
       9070.6422       284.95800       16.825007       1
       9082.7640       244.67795       13.336332       1
       9094.8859       195.87700       16.536533       1
       9107.0077       289.95986       13.346183       1
       9119.1296       255.54746       21.124871       1
       9131.2514       284.65703       13.213477       1
       9143.3733       257.18745       16.608615       1
       9155.4951       250.74474       12.980321       1
       9167.6169       240.56456       16.131323       1
       9179.7388       279.50615       13.011084       1
       9191.8606       264.61729       16.089440       1
       9203.9825       277.62880       12.863180       1
       9216.1043       208.83986       16.105481       1
       9228.2262       235.62578       12.608831       1
       9240.3480       233.72436       15.736631       1
       9252.4698       226.77772       12.493714       1
       9264.5917       229.87453       15.629761       1
       9276.7135       231.42539       12.483202       1
       9288.8354       240.09829       15.607810       1
       9300.9572       210.75831       13.741478       1
       9313.0791       193.36984       15.634177       1
       9325.2009       254.11643       12.375789       1
       9337.3227       236.09414       15.523180       1
       9349.4446       254.44437       12.355890       1
       9361.5664       227.18969       15.423036       1
       9373.6883       243.28880       12.303711       1
       9385.8101       216.89475       15.259992       1
       9397.9320       259.39113       14.040669       1
       9410.0538       222.83680       15.185360       1
       9422.1756       252.93018       12.228084       1
       9434.2975       235.43561       15.178852       1
       9446.4193       247.80994       12.098772       1
       9458.5412       235.56798       15.190283       1
       9470.6630       241.70256       13.847105       1
       9482.7849       240.03963       15.041118       1
       9494.9067       239.98143       11.988342       1
       9507.0285       246.20735       14.959250       1
       9519.1504       224.77710       12.559347       1
       9531.2722       236.41781       14.932365       1
       9543.3941       236.43336       11.859169       1
       9555.5159       212.55817       14.661949       1
       9567.6378       223.04780       11.782356       1
       9579.7596       248.89942       14.772467       1
       9591.8814       232.91132       11.749408       1
       9604.0033       237.77181       14.651531       1
       9616.1251       232.11177       12.711107       1
       9628.2470       236.64161       14.807809       1
       9640.3688       239.83206       11.698837       1
       9652.4907       228.77149       18.660177       1
       9664.6125       229.19285       11.615656       1
       9676.7343       230.10396       14.466812       1
       9688.8562       242.85482       11.611721       1
       9700.9780       225.22720       14.319564       1
       9713.0999       234.02641       11.504767       1
       9725.2217       230.25988       14.542771       1
       9737.3436       222.49850       11.465030       1
       9749.4654       231.35001       14.339292       1
       9761.5873       244.88271       11.520663       1
       9773.7091       225.70333       14.287123       1
       9785.8309       228.96059       11.357951       1
       9797.9528       229.73619       14.412146       1
       9810.0746       228.83323       11.407301       1
       9822.1965       246.15969       14.380593       1
       9834.3183       231.27523       11.934178       1
       9846.4402       243.20740       14.227358       1
       9858.5620       226.79488       11.331783       1
       9870.6838       233.31637       14.157045       1
       9882.8057       241.30345       11.361229       1
       9894.9275       223.41500       14.113659       1
       9907.0494       233.32063       11.304948       1
       9919.1712       205.07110       13.986023       1
       9931.2931       225.35620       11.256014       1
       9943.4149       240.27643       14.114148       1
       9955.5367       233.00266       11.233310       1
       9967.6586       220.21335       14.156655       1
       9979.7804       221.59695       11.127508       1
       9991.9023       224.57682       13.837145       1
       10004.024       222.30094       11.094009       1
       10016.146       210.54900       13.733565       1
       10028.268       208.69825       11.002047       1
       10040.390       222.83596       13.766530       1
       10052.511       214.84234       10.991103       1
       10064.633       262.21441       13.876572       1
       10076.755       225.56285       11.032008       1
       10088.877       212.27345       13.907727       1
       10100.999       237.33438       11.058863       1
       10113.121       222.00605       13.628974       1
       10125.243       230.75053       10.981778       1
       10137.364       227.17810       13.661850       1
       10149.486       214.71341       10.882087       1
       10161.608       221.23899       13.592462       1
       10173.730       218.21444       10.864046       1
       10185.852       230.37710       13.626029       1
       10197.974       215.81353       10.860283       1
       10210.095       236.95866       13.671461       1
       10222.217       208.58371       10.887543       1
       10234.339       243.19963       13.574143       1
       10246.461       237.94850       10.826843       1
       10258.583       201.99414       13.661618       1
       10270.705       236.01832       10.794538       1
       10282.827       246.03343       13.735720       1
       10294.948       253.14076       10.828437       1
       10307.070       266.29945       13.523930       1
       10319.192       249.01370       10.745492       1
       10331.314       232.56222       13.346189       1
       10343.436       235.65277       10.714204       1
       10355.558       233.00370       13.358145       1
       10367.679       198.88101       10.555391       1
       10379.801       200.66739       13.074911       1
       10391.923       205.57519       10.570643       1
       10404.045       217.30574       13.297910       1
       10416.167       223.23460       10.556378       1
       10428.289       232.93124       13.446739       1
       10440.410       255.42653       11.379946       1
       10452.532       240.73124       13.375916       1
       10464.654       209.79385       10.543069       1
       10476.776       205.99248       13.142814       1
       10488.898       246.57598       10.678896       1
       10501.020       256.60750       13.459928       1
       10513.142       290.50467       10.852539       1
       10525.263       301.50816       13.754173       1
       10537.385       334.21373       11.015323       1
       10549.507       300.81040       13.588121       1
       10561.629       284.25993       10.817760       1
       10573.751       275.06879       13.745763       1
       10585.873       288.31585       10.841982       1
       10597.994       315.74135       13.766942       1
       10610.116       359.52689       11.102579       1
       10622.238       322.95286       13.703647       1
       10634.360       289.79941       11.656425       1
       10646.482       261.81499       13.268399       1
       10658.604       245.93985       11.457977       1
       10670.725       223.92138       13.074530       1
       10682.847       207.78862       10.413708       1
       10694.969       200.78903       12.934082       1
       10707.091       209.04344       10.420470       1
       10719.213       211.73654       13.055837       1
       10731.335       192.76652       10.334284       1
       10743.457       191.61987       13.002635       1
       10755.578       199.70154       10.359985       1
       10767.700       177.74986       13.032695       1
       10779.822       200.69013       10.390682       1
       10791.944       198.14439       15.052556       1
       10804.066       210.11730       10.407562       1
       10816.188       185.92121       13.113272       1
       10828.309       199.00229       10.452947       1
       10840.431       226.02093       13.087720       1
       10852.553       203.27200       10.330128       1
       10864.675       157.10956       12.831433       1
       10876.797       177.41466       10.197440       1
       10888.919       184.69129       12.669443       1
       10901.040       199.46283       10.235215       1
       10913.162       178.93222       12.976520       1
       10925.284       202.93455       10.265019       1
       10937.406       173.08718       12.843355       1
       10949.528       191.33810       11.553373       1
       10961.650       190.93366       12.992674       1
       10973.772       186.90967       10.288894       1
       10985.893       198.72721       12.779998       1
       10998.015       178.14744       10.076803       1
       11010.137       189.07103       12.696552       1
       11022.259       194.27031       10.115419       1
       11034.381       193.03237       14.650129       1
       11046.503       170.69722       10.041573       1
       11058.624       208.05148       12.704231       1
       11070.746       185.53980       10.081154       1
       11082.868       175.63517       12.870807       1
       11094.990       195.21862       10.254906       1
       11107.112       166.40860       12.740815       1
       11119.234       190.03508       10.154775       1
       11131.356       166.76082       14.507868       1
       11143.477       186.25851       10.117380       1
       11155.599       197.54669       15.094872       1
       11167.721       193.55798       10.111686       1
       11179.843       196.48555       12.715109       1
       11191.965       207.46784       10.249166       1
       11204.087       199.75896       14.746146       0
       11216.208       196.01083       10.146726       0
       11228.330       182.14471       12.635825       0
       11240.452       196.03282       10.187005       0
       11252.574       186.70364       12.694587       0
       11264.696       175.78094       10.045533       0
       11276.818       160.05888       12.473582       0
       11288.939       176.69061       10.069303       0
       11301.061       190.47028       12.650387       0
       11313.183       170.90183       10.045216       0
       11325.305       172.01705       12.820291       0
       11337.427       157.42880       10.162856       0
       11349.549       179.37317       13.063319       0
       11361.671       172.87137       10.598107       0
       11373.792       176.11344       13.598219       0
       11385.914       175.82423       11.298806       0
       11398.036       176.67599       14.851908       0
       11410.158       201.82206       12.454775       0
       11422.280       198.59549       16.566853       0
       11434.402       196.14526       13.873571       0
       11446.523       227.82387       18.878113       0
       11458.645       226.11901       15.697150       0
       11470.767       248.49482       21.023302       0
       11482.889       300.27238       17.632896       0
       11495.011       276.12006       23.031878       0
       11507.133       376.47193       19.571977       0
       11519.254       384.90735       25.530545       0
       11531.376       354.10985       21.809869       0
       11543.498       326.86389       28.937706       0
       11555.620       386.48449       25.284171       0
       11567.742       421.46538       34.587663       0
       11579.864       543.60127       33.167178       0
       11591.986       682.38432       43.366281       0
       11604.107       831.74141       38.163383       0
       11616.229       1059.3609       51.993037       0
       11628.351       1221.5795       46.834107       0
       11640.473       1125.9303       63.986254       0
       11652.595       1753.0658       56.840904       0
       11664.717       587.15719       79.058309       0
       11676.838       2792.8103       72.058636       0
       11688.960       1652.3272       131.31864       0
       11701.082       4315.9142       93.753219       0
       11713.204       5360.8616       158.18395       0
       11725.326       4643.2397       122.84645       0
       11737.448       3578.9123       164.31454       0
       11749.570       8936.8177       135.52220       0
       11761.691       6103.2189       199.86460       0
       11773.813       3261.1313       133.74702       0
       11785.935       9363.9592       166.18064       0
       11798.057       5855.7539       130.48967       0
       11810.179       9256.0240       170.03975       0
       11822.301       7631.6912       172.39780       0
       11834.422       16109.841       189.45327       0
       11846.544       3953.3890       161.20869       0
