#WAVELENGTH FLUX ERROR MASK
       7484.8595      -3161.2968       525.33535       0
       7496.6161       642.31680       323.13152       0
       7508.3726      -4020.9249       369.78228       0
       7520.1292       3812.8169       276.06122       0
       7531.8857       3789.3024       316.63935       0
       7543.6422      -14335.179       222.03853       0
       7555.3988      -9610.1432       253.37923       0
       7567.1553       2286.6820       185.15544       0
       7578.9119      -1225.2445       201.86292       0
       7590.6684      -2544.2021       148.32551       0
       7602.4250       1657.2761       168.16702       0
       7614.1815       1248.4394       126.61222       0
       7625.9381       1016.6790       145.76653       0
       7637.6946       889.88201       108.50898       0
       7649.4512      -365.29516       125.40385       0
       7661.2077      -641.65719       92.997511       0
       7672.9643       817.37487       106.74439       0
       7684.7208      -196.23125       77.720726       0
       7696.4774       305.60232       88.267637       0
       7708.2339      -1678.0954       64.144354       0
       7719.9904      -186.61241       74.727730       0
       7731.7470      -60.418694       58.876178       0
       7743.5035       170.44077       68.014876       0
       7755.2601      -578.49933       52.837401       0
       7767.0166       220.09323       63.369697       0
       7778.7732      -515.33352       49.305298       0
       7790.5297       192.43408       59.467533       0
       7802.2863      -507.18494       44.636489       0
       7814.0428      -189.20158       53.165725       0
       7825.7994       251.88553       40.956782       0
       7837.5559       485.08309       48.931178       0
       7849.3125      -24.068351       36.704335       0
       7861.0690       189.16966       43.529558       0
       7872.8255       91.668058       33.622258       0
       7884.5821       268.31253       40.804705       0
       7896.3386       18.359954       31.412410       0
       7908.0952       176.13339       37.565083       0
       7919.8517      -46.173962       29.616361       0
       7931.6083       147.02928       36.218907       0
       7943.3648      -44.499813       27.883860       0
       7955.1214       93.297010       34.404304       0
       7966.8779      -68.544895       26.849566       0
       7978.6345       60.622097       33.037126       0
       7990.3910       151.70712       26.400794       0
       8002.1476       39.546829       32.095064       0
       8013.9041       32.837616       25.414534       0
       8025.6607       18.904611       30.968540       0
       8037.4172       136.86861       24.768343       0
       8049.1737       210.03482       30.754481       0
       8060.9303       11.521744       23.954386       0
       8072.6868       200.20926       30.157754       0
       8084.4434       206.72939       24.345198       0
       8096.1999       120.23171       36.027310       0
       8107.9565       144.13143       23.615308       0
       8119.7130       107.31009       35.272086       0
       8131.4696       132.43293       23.318264       0
       8143.2261       126.61948       28.173203       0
       8154.9827       133.71805       22.925053       1
       8166.7392       206.33864       28.325100       1
       8178.4958       37.619964       22.269002       1
       8190.2523       62.243009       27.107892       1
       8202.0088       138.30175       22.098521       1
       8213.7654       127.46948       27.033996       1
       8225.5219       81.354492       21.486921       1
       8237.2785       53.313660       26.357710       1
       8249.0350       33.047848       23.215629       1
       8260.7916       21.378682       25.570407       1
       8272.5481       161.35933       20.631810       1
       8284.3047       91.976848       25.054641       1
       8296.0612       165.24069       20.256077       1
       8307.8178       162.60814       24.980510       1
       8319.5743       153.01310       19.845981       1
       8331.3309       165.97449       24.522226       1
       8343.0874       180.46805       19.609718       1
       8354.8440       90.939830       23.255567       1
       8366.6005       158.44966       19.327645       1
       8378.3570       133.82911       23.746096       1
       8390.1136       81.658992       18.905212       1
       8401.8701       81.737006       23.327884       1
       8413.6267       49.809154       18.634865       1
       8425.3832       85.862898       23.038015       1
       8437.1398       147.55687       18.505943       1
       8448.8963       191.27739       22.989140       1
       8460.6529       113.47882       18.240829       1
       8472.4094       249.27819       22.799695       1
       8484.1660       101.69253       17.896987       1
       8495.9225       220.56800       22.366907       1
       8507.6791       112.73414       17.721507       1
       8519.4356       87.864886       21.639112       1
       8531.1922       162.14171       17.786236       1
       8542.9487       126.89850       21.763491       1
       8554.7052       161.54944       17.591958       1
       8566.4618       158.51128       21.735644       1
       8578.2183       171.38714       17.552404       1
       8589.9749       96.321149       21.115011       1
       8601.7314       148.74171       17.448881       1
       8613.4880       219.51586       21.821362       1
       8625.2445       160.31429       17.444551       1
       8637.0011       160.05717       21.633430       1
       8648.7576       147.85501       16.978403       1
       8660.5142       33.803732       21.155458       1
       8672.2707       120.36718       16.787729       1
       8684.0273       96.515270       20.577930       1
       8695.7838       121.45603       16.727049       1
       8707.5403       195.59054       20.885866       1
       8719.2969       131.26647       16.494253       1
       8731.0534       164.42001       20.351608       1
       8742.8100       129.58785       16.234666       1
       8754.5665       142.75901       20.027650       1
       8766.3231       163.12200       16.129446       1
       8778.0796       154.98218       19.840582       1
       8789.8362       167.83050       16.065191       1
       8801.5927       167.48224       19.680407       1
       8813.3493       129.64997       15.707124       1
       8825.1058       200.63641       19.624852       1
       8836.8624       159.77854       15.701365       1
       8848.6189       177.65245       19.282803       1
       8860.3755       124.24897       15.405773       1
       8872.1320       172.58556       19.170129       1
       8883.8885       138.35114       15.312334       1
       8895.6451       134.46774       18.898364       1
       8907.4016       109.29380       15.111085       1
       8919.1582       167.70308       18.850655       1
       8930.9147       134.60625       15.034872       1
       8942.6713       137.51557       22.877214       1
       8954.4278       120.53333       14.956562       1
       8966.1844       256.95653       23.240736       1
       8977.9409       170.77790       14.886658       1
       8989.6975       191.86865       18.449608       1
       9001.4540       137.58353       14.716975       1
       9013.2106       161.47347       18.255665       1
       9024.9671       147.19953       14.716084       1
       9036.7236       104.20397       17.888834       1
       9048.4802       141.27680       14.558282       1
       9060.2367       126.81581       17.994059       1
       9071.9933       133.19603       14.475613       1
       9083.7498       115.35934       17.836903       1
       9095.5064       128.99570       14.335294       1
       9107.2629       125.49670       17.677885       1
       9119.0195       155.60591       14.310715       1
       9130.7760       166.53231       17.517029       1
       9142.5326       157.66325       14.198469       1
       9154.2891       125.71916       17.405331       1
       9166.0457       106.15735       15.775372       1
       9177.8022       152.38917       16.900412       1
       9189.5588       110.62498       13.585512       1
       9201.3153       102.92166       16.930328       1
       9213.0718       148.44695       13.765198       1
       9224.8284       109.63072       16.802101       1
       9236.5849       144.49993       13.702639       1
       9248.3415       147.55759       16.853413       1
       9260.0980       150.06970       13.621655       1
       9271.8546       157.14147       16.871629       1
       9283.6111       168.64569       13.656247       1
       9295.3677       163.27182       16.802680       1
       9307.1242       142.52110       13.459864       1
       9318.8808       175.03918       16.809917       1
       9330.6373       137.98324       13.357583       1
       9342.3939       144.70080       16.569846       1
       9354.1504       169.49847       13.426121       1
       9365.9070       166.89794       16.642861       1
       9377.6635       159.06390       13.354371       1
       9389.4200       94.227596       16.227654       1
       9401.1766       133.64387       13.130612       1
       9412.9331       103.90117       16.118217       1
       9424.6897       162.86568       13.182551       1
       9436.4462       148.37146       16.088326       1
       9448.2028       156.36972       13.068936       1
       9459.9593       110.43903       15.971843       1
       9471.7159       143.93003       13.009714       1
       9483.4724       148.21688       16.059289       1
       9495.2290       126.84220       12.856842       1
       9506.9855       194.57804       16.203141       1
       9518.7421       150.31178       12.852442       1
       9530.4986       132.84452       15.860788       1
       9542.2551       129.51140       12.785647       1
       9554.0117       178.76354       16.013003       1
       9565.7682       135.75854       12.737975       1
       9577.5248       168.93646       15.861438       1
       9589.2813       228.14564       18.123421       1
       9601.0379       152.14333       15.759180       1
       9612.7944       154.17767       12.720339       1
       9624.5510       157.52175       15.639302       1
       9636.3075       137.77504       14.340884       1
       9648.0641       135.01586       15.471644       1
       9659.8206       146.17904       12.536381       1
       9671.5772       129.24281       15.464438       1
       9683.3337       154.93608       12.484185       1
       9695.0903       147.55831       15.260903       1
       9706.8468       180.96098       12.627770       1
       9718.6033       161.55814       15.469405       1
       9730.3599       169.59699       12.525055       1
       9742.1164       140.15354       15.350491       1
       9753.8730       152.95095       12.422840       1
       9765.6295       112.10570       15.167010       1
       9777.3861       147.13870       12.311899       1
       9789.1426       133.15299       15.179925       1
       9800.8992       121.22734       12.198875       1
       9812.6557       90.896268       14.922026       1
       9824.4123       110.72927       12.152264       1
       9836.1688       85.035358       14.441476       1
       9847.9254       150.47192       12.248017       1
       9859.6819       139.39136       15.038200       1
       9871.4384       153.60106       12.217787       1
       9883.1950       93.820065       14.819952       1
       9894.9515       170.11092       12.282759       1
       9906.7081       168.29062       15.174081       1
       9918.4646       147.26560       12.171848       1
       9930.2212       152.21281       15.065207       1
       9941.9777       159.28438       12.153085       1
       9953.7343       172.06525       15.126424       1
       9965.4908       152.05519       12.052551       1
       9977.2474       192.68375       15.146533       1
       9989.0039       139.34463       11.937122       1
       10000.760       181.32024       14.980740       1
       10012.517       123.29863       11.806550       1
       10024.274       155.87102       14.687492       1
       10036.030       124.59798       11.805701       1
       10047.787       125.83212       14.576836       1
       10059.543       150.08553       11.883559       1
       10071.300       121.10994       14.598442       1
       10083.056       134.75456       11.813915       1
       10094.813       117.65781       14.495418       1
       10106.569       144.77206       11.909185       1
       10118.326       146.83265       14.568855       1
       10130.082       152.20129       11.873273       1
       10141.839       126.58205       14.444910       1
       10153.596       137.98721       11.775905       1
       10165.352       129.89307       14.476742       1
       10177.109       142.50481       11.694900       1
       10188.865       160.35376       14.549637       1
       10200.622       118.15511       11.629339       1
       10212.378       82.756223       10.011231       1
       10224.135       133.00848       11.611043       1
       10235.891       118.32020       14.153855       1
       10247.648       138.15998       11.543548       1
       10259.404       132.47575       14.198878       1
       10271.161       155.40484       11.565294       1
       10282.918       182.73910       14.376529       1
       10294.674       149.65576       11.515430       1
       10306.431       142.05018       14.152360       1
       10318.187       151.30965       13.006431       1
       10329.944       96.281276       13.911721       1
       10341.700       121.52034       11.335674       1
       10353.457       123.95395       13.994101       1
       10365.213       108.26179       11.287164       1
       10376.970       122.36643       13.994814       1
       10388.726       147.31549       11.387854       1
       10400.483       106.45887       13.955305       1
       10412.240       117.99530       11.272834       1
       10423.996       136.50149       14.007304       1
       10435.753       113.41476       11.273250       1
       10447.509       160.47909       14.075744       1
       10459.266       140.92244       11.315738       1
       10471.022       68.484182       13.477710       1
       10482.779       118.92169       11.230426       1
       10494.535       130.17154       13.907127       1
       10506.292       150.14208       11.341372       1
       10518.049       141.65971       14.014857       1
       10529.805       126.16531       11.254019       1
       10541.562       174.83706       14.177098       1
       10553.318       134.35102       11.317852       1
       10565.075       148.14569       14.059237       1
       10576.831       137.96002       11.298335       1
       10588.588       153.22593       13.964140       1
       10600.344       133.66232       11.246379       1
       10612.101       151.84631       13.892087       1
       10623.857       109.08121       11.086054       1
       10635.614       135.99327       13.818768       1
       10647.371       125.83739       11.051766       1
       10659.127       114.28395       13.690532       1
       10670.884       133.73247       11.102927       1
       10682.640       117.94307       13.640692       1
       10694.397       152.38235       15.169991       1
       10706.153       123.70022       13.583833       1
       10717.910       122.93559       10.977166       1
       10729.666       148.21729       13.776541       1
       10741.423       152.71195       11.142603       1
       10753.179       130.95444       13.641421       1
       10764.936       128.68790       10.998662       1
       10776.693       116.23497       13.485586       1
       10788.449       130.49274       10.980011       1
       10800.206       129.55023       13.602212       1
       10811.962       132.78616       11.063496       1
       10823.719       143.18875       13.628563       1
       10835.475       119.57920       10.944355       1
       10847.232       187.36755       13.806998       1
       10858.988       118.13496       10.910684       1
       10870.745       150.93537       13.562349       1
       10882.501       140.40480       10.987227       1
       10894.258       141.95115       16.618564       1
       10906.015       128.70952       10.895175       1
       10917.771       66.272305       9.3494986       1
       10929.528       129.48243       10.941896       1
       10941.284       142.34217       13.479808       1
       10953.041       146.72791       10.995839       1
       10964.797       99.680058       13.152183       1
       10976.554       135.65532       10.947290       1
       10988.310       145.36606       13.492998       1
       11000.067       127.19691       10.890668       1
       11011.823       135.20356       13.411626       1
       11023.580       143.97429       10.961594       1
       11035.337       104.68380       13.214741       1
       11047.093       148.59785       10.872662       1
       11058.850       135.17280       13.443499       1
       11070.606       126.40240       10.885924       1
       11082.363       145.92160       13.502723       1
       11094.119       130.03205       12.102203       1
       11105.876       137.68948       13.418798       1
       11117.632       120.54142       10.830736       1
       11129.389       140.57843       13.416974       1
       11141.145       132.70038       10.866350       1
       11152.902       135.09511       13.420303       1
       11164.659       147.13983       10.913592       1
       11176.415       147.69388       13.505825       1
       11188.172       123.91392       10.833554       1
       11199.928       109.14951       13.232672       1
       11211.685       122.75788       10.784431       0
       11223.441       149.59676       13.452533       0
       11235.198       153.19610       10.905724       0
       11246.954       114.19193       13.291606       0
       11258.711       137.00529       10.889044       0
       11270.467       122.61899       13.297687       0
       11282.224       136.26649       10.813051       0
       11293.981       172.29313       13.522021       0
       11305.737       132.34746       10.862056       0
       11317.494       140.41055       13.483444       0
       11329.250       135.61353       10.952929       0
       11341.007       138.34876       13.566522       0
       11352.763       115.33647       11.104702       0
       11364.520       131.19394       13.980285       0
       11376.276       140.81227       11.691634       0
       11388.033       90.583046       14.381079       0
       11399.789       123.99421       12.466230       0
       11411.546       126.90372       16.068792       0
       11423.303       120.30389       13.701873       0
       11435.059       100.58610       17.769352       0
       11446.816       115.58324       15.339171       0
       11458.572       157.33114       20.204053       0
       11470.329       89.379829       17.195960       0
       11482.085       182.93121       22.691164       0
       11493.842       130.25371       19.167562       0
       11505.598       140.72502       24.718279       0
       11517.355       110.03524       20.869545       0
       11529.112       27.937546       26.743938       0
       11540.868       80.823734       23.331331       0
       11552.625       200.17811       31.354227       0
       11564.381       44.416047       27.348741       0
       11576.138       51.049840       36.372589       0
       11587.894      -129.92293       32.602429       0
       11599.651      -17.658826       44.077035       0
       11611.407       121.47619       40.329560       0
       11623.164       555.52912       54.618080       0
       11634.920      -161.05126       48.952555       0
       11646.677       1054.0092       66.648315       0
       11658.434      -570.24028       58.009360       0
       11670.190      -563.62199       85.278828       0
       11681.947      -279.88786       73.634562       0
       11693.703       1262.6132       101.74051       0
       11705.460       1916.8119       96.743815       0
