#WAVELENGTH FLUX ERROR MASK
       7484.8595      -7430.2953       25613.780       0
       7496.6161      -7297.4336       18170.783       0
       7508.3726      -11133.147       18864.851       0
       7520.1292      -7617.9617       12991.550       0
       7531.8857      -2288.6651       13935.628       0
       7543.6422       216.78022       9277.2095       0
       7555.3988      -7030.9909       9030.2549       0
       7567.1553      -5863.5205       5838.4593       0
       7578.9119      -1638.3134       5809.3209       0
       7590.6684      -2459.2047       3987.8550       0
       7602.4250       1489.2081       4005.9092       0
       7614.1815      -947.30432       2748.0444       0
       7625.9381       410.18685       2899.9574       0
       7637.6946      -1136.9061       2044.0925       0
       7649.4512       605.55344       2198.5956       0
       7661.2077      -768.19058       1512.0946       0
       7672.9643      -394.01672       1581.4741       0
       7684.7208      -748.09601       1085.3131       0
       7696.4774       41.830397       1119.2703       0
       7708.2339      -429.25564       889.04532       0
       7719.9904       27.763581       834.82217       0
       7731.7470      -399.18110       626.98384       0
       7743.5035      -18.877548       617.00839       0
       7755.2601       191.63589       501.20927       0
       7767.0166      -71.810631       570.18355       0
       7778.7732      -134.66820       426.55803       0
       7790.5297       65.120138       486.70256       0
       7802.2863      -259.37248       353.32469       0
       7814.0428       38.711201       399.21839       0
       7825.7994       6.7597757       293.31571       0
       7837.5559       119.83046       324.82812       0
       7849.3125       78.582401       242.13285       0
       7861.0690       139.03995       268.89574       0
       7872.8255       112.28713       203.00630       0
       7884.5821       50.153230       226.30379       0
       7896.3386       16.990527       171.63930       0
       7908.0952       20.259128       200.48368       0
       7919.8517       67.061345       153.25792       0
       7931.6083       145.28874       181.43398       0
       7943.3648      -22.250626       157.21646       0
       7955.1214       51.056069       165.62467       0
       7966.8779      -4.1636467       127.38052       0
       7978.6345       216.81700       153.63753       0
       7990.3910       64.958645       118.70391       0
       8002.1476      0.23961263       141.11783       0
       8013.9041       15.930325       111.14582       0
       8025.6607       53.391295       134.78391       0
       8037.4172       155.08362       106.60130       0
       8049.1737       30.170253       128.07913       0
       8060.9303      -39.340242       99.006352       0
       8072.6868       97.040720       123.64327       0
       8084.4434       8.9705029       97.035804       0
       8096.1999      -13.353486       129.31238       0
       8107.9565      -29.826777       94.251287       0
       8119.7130       117.35397       126.94273       0
       8131.4696       24.439767       91.519993       0
       8143.2261      -1.1259988       128.11135       0
       8154.9827       48.763561       89.240816       1
       8166.7392       85.012153       125.54711       1
       8178.4958       32.438685       85.341866       1
       8190.2523       57.017955       36256426.       1
       8202.0088       61.572911       83.078742       1
       8213.7654       63.535385       100.72040       1
       8225.5219       59.561187       79.792806       1
       8237.2785      -6.6291621       110.49509       1
       8249.0350       13.496917       75.250775       1
       8260.7916       26.159349       90.772120       1
       8272.5481       30.465291       72.076089       1
       8284.3047      -8.1101729       86.119379       1
       8296.0612       34.883301       68.256947       1
       8307.8178      -14.704118       83.038568       1
       8319.5743       35.041094       65.928537       1
       8331.3309       19.392185       79.238152       1
       8343.0874       74.644704       67.714985       1
       8354.8440       85.008484       78.113766       1
       8366.6005       18.703445       64.889534       1
       8378.3570       55.618269       76.284298       1
       8390.1136       33.760056       69.246741       1
       8401.8701       66.159056       74.577424       1
       8413.6267       53.761379       59.059759       1
       8425.3832       28.456894       71.820680       1
       8437.1398       28.582633       57.161027       1
       8448.8963       75.950071       70.342402       1
       8460.6529       56.671752       56.750424       1
       8472.4094      -17.385270       67.626796       1
       8484.1660       74.010845       55.500717       1
       8495.9225       79.578138       66.912704       1
       8507.6791       44.240889       52.854300       1
       8519.4356       118.24954       65.908190       1
       8531.1922       39.386199       53.790136       1
       8542.9487      -7.2430374       64.832041       1
       8554.7052       71.973699       51.618155       1
       8566.4618       55.427701       62.887223       1
       8578.2183       74.093185       58.396701       1
       8589.9749       50.744439       62.513326       1
       8601.7314       79.603878       50.990861       1
       8613.4880       81.089534       63.068684       1
       8625.2445       22.488652       49.937592       1
       8637.0011       43.783632       63.240293       1
       8648.7576       51.138991       52.147199       1
       8660.5142       69.252028       62.513029       1
       8672.2707       86.141778       48.939531       1
       8684.0273       57.324318       59.626923       1
       8695.7838       30.387744       47.149701       1
       8707.5403       44.304706       57.532779       1
       8719.2969       92.985493       45.982328       1
       8731.0534       66.283184       55.527330       1
       8742.8100       64.066399       43.914669       1
       8754.5665       59.767066       54.008015       1
       8766.3231       59.525243       50.109701       1
       8778.0796       47.826432       52.456925       1
       8789.8362       65.862081       42.469575       1
       8801.5927       44.242305       51.504225       1
       8813.3493       40.679079       42.036791       1
       8825.1058       8.5760333       50.167606       1
       8836.8624       77.505851       40.738995       1
       8848.6189       48.484997       49.463952       1
       8860.3755       36.684253       39.463439       1
       8872.1320       22.540079       48.150931       1
       8883.8885       44.831958       39.064645       1
       8895.6451       68.628614       47.857921       1
       8907.4016       76.290424       38.648937       1
       8919.1582       70.961346       47.124151       1
       8930.9147       46.185211       37.865569       1
       8942.6713       61.153751       46.534993       1
       8954.4278       63.801350       36.996804       1
       8966.1844       51.841665       45.548588       1
       8977.9409       65.404818       36.551618       1
       8989.6975       59.486531       44.735066       1
       9001.4540       45.619586       35.755868       1
       9013.2106       42.248915       43.743644       1
       9024.9671       88.642252       36.048167       1
       9036.7236       72.748900       43.966072       1
       9048.4802       47.327257       36.216115       1
       9060.2367       32.132745       43.215977       1
       9071.9933       40.365439       34.631058       1
       9083.7498       80.561433       42.797049       1
       9095.5064       47.290408       35.852486       1
       9107.2629       76.724761       42.386718       1
       9119.0195       34.852413       33.480503       1
       9130.7760       32.282802       37.592249       1
       9142.5326       75.429771       33.196248       1
       9154.2891       67.292478       40.397092       1
       9166.0457       50.336947       32.135071       1
       9177.8022       55.645217       39.698853       1
       9189.5588       60.008005       31.530534       1
       9201.3153       41.173345       38.394230       1
       9213.0718       76.408274       31.360658       1
       9224.8284       81.772707       38.750539       1
       9236.5849       71.957594       33.926175       1
       9248.3415       66.908179       37.976428       1
       9260.0980       68.131367       30.582841       1
       9271.8546       38.387262       37.378100       1
       9283.6111       65.697177       30.213281       1
       9295.3677       56.736846       37.255385       1
       9307.1242       53.959264       29.672693       1
       9318.8808       53.902946       36.825948       1
       9330.6373       68.623446       29.507246       1
       9342.3939       53.423921       33.271077       1
       9354.1504       65.806990       29.433850       1
       9365.9070       47.234213       36.046213       1
       9377.6635       65.822672       29.042289       1
       9389.4200       91.683575       36.156081       1
       9401.1766       54.337981       33.167684       1
       9412.9331       43.762813       34.862896       1
       9424.6897       60.480503       28.315045       1
       9436.4462       67.573883       34.969263       1
       9448.2028       79.499722       29.164087       1
       9459.9593       52.110440       34.325927       1
       9471.7159       64.449357       27.627342       1
       9483.4724       61.754192       34.228779       1
       9495.2290       78.169438       27.284724       1
       9506.9855       54.279842       33.745944       1
       9518.7421       73.928221       27.271781       1
       9530.4986       42.479754       32.682062       1
       9542.2551       78.966762       27.034417       1
       9554.0117       46.564135       33.054626       1
       9565.7682       60.935342       26.646175       1
       9577.5248       51.393916       32.682914       1
       9589.2813       35.709957       26.586975       1
       9601.0379       66.065546       32.615371       1
       9612.7944       68.829388       27.319719       1
       9624.5510       70.071787       32.182487       1
       9636.3075       71.182986       27.264010       1
       9648.0641       74.080788       32.043569       1
       9659.8206       51.320672       26.813486       1
       9671.5772       47.702289       31.792680       1
       9683.3337       48.902703       25.345190       1
       9695.0903       84.035702       31.654237       1
       9706.8468       55.005161       25.259165       1
       9718.6033       42.006029       31.061274       1
       9730.3599       50.110354       24.852505       1
       9742.1164       56.656671       30.961487       1
       9753.8730       62.589391       24.824097       1
       9765.6295       43.960083       30.297567       1
       9777.3861       44.300466       24.441961       1
       9789.1426       73.691395       30.538315       1
       9800.8992       58.884739       24.452020       1
       9812.6557       62.008230       30.229724       1
       9824.4123       54.743978       27.493921       1
       9836.1688       62.300109       30.145675       1
       9847.9254       70.278106       24.389148       1
       9859.6819       72.379734       29.985131       1
       9871.4384       57.928959       24.076834       1
       9883.1950       68.173297       29.810279       1
       9894.9515       70.393464       24.038172       1
       9906.7081       53.797056       29.520217       1
       9918.4646       64.857846       24.014105       1
       9930.2212       39.952225       29.227185       1
       9941.9777       71.037771       23.773217       1
       9953.7343       57.927034       29.102152       1
       9965.4908       69.510371       23.586382       1
       9977.2474       46.001677       28.754684       1
       9989.0039       66.365259       23.324691       1
       10000.760       43.999532       28.344884       1
       10012.517       71.391492       23.015886       1
       10024.274       75.412213       28.397308       1
       10036.030       62.075003       22.737025       1
       10047.787       65.132870       28.021426       1
       10059.543       74.162806       22.839346       1
       10071.300       65.969998       28.218861       1
       10083.056       57.635796       22.633943       1
       10094.813       63.078423       9639366.3       1
       10106.569       58.340454       22.688754       1
       10118.326       59.840100       27.819837       1
       10130.082       78.030624       22.647370       1
       10141.839       69.209575       27.916059       1
       10153.596       71.171541       22.410657       1
       10165.352       57.652704       27.563824       1
       10177.109       66.354011       22.217921       1
       10188.865       53.142808       27.310943       1
       10200.622       66.066643       22.114257       1
       10212.378       71.662298       27.167723       1
       10224.135       80.811093       22.119431       1
       10235.891       68.704349       26.940399       1
       10247.648       76.227769       25.236322       1
       10259.404       67.117493       26.562063       1
       10271.161       61.255372       22.344050       1
       10282.918       81.561054       26.627875       1
       10294.674       67.535004       21.244700       1
       10306.431       81.271612       26.379261       1
       10318.187       72.464986       21.192155       1
       10329.944       72.783225       26.065639       1
       10341.700       57.172793       21.009562       1
       10353.457       48.421029       25.650094       1
       10365.213       57.284291       20.963436       1
       10376.970       66.637205       8865635.0       1
       10388.726       59.705197       20.899415       1
       10400.483       48.847620       25.631016       1
       10412.240       43.768375       20.695139       1
       10423.996       63.257790       25.541583       1
       10435.753       57.164686       20.694147       1
       10447.509       67.391997       25.621732       1
       10459.266       60.320890       20.711866       1
       10471.022       66.813401       25.466310       1
       10482.779       64.691750       23.421012       1
       10494.535       58.031407       25.414667       1
       10506.292       59.217347       22.591638       1
       10518.049       71.954864       25.653288       1
       10529.805       69.523928       20.735379       1
       10541.562       54.782465       25.495757       1
       10553.318       64.718957       21.515781       1
       10565.075       74.333906       25.632763       1
       10576.831       71.314350       20.743482       1
       10588.588       58.172548       25.332887       1
       10600.344       57.249617       20.379746       1
       10612.101       50.624429       24.890936       1
       10623.857       62.620699       20.225716       1
       10635.614       50.451434       24.752920       1
       10647.371       71.521812       21.116886       1
       10659.127       61.943815       24.519785       1
       10670.884       76.576391       20.028337       1
       10682.640       69.755925       24.459952       1
       10694.397       71.541495       19.939914       1
       10706.153       62.362114       22.359960       1
       10717.910       52.892305       19.661283       1
       10729.666       40.899321       23.996633       1
       10741.423       54.983908       19.702937       1
       10753.179       80.019221       24.415233       1
       10764.936       61.634431       19.639187       1
       10776.693       47.691714       22.055811       1
       10788.449       62.344209       19.580962       1
       10800.206       82.612890       24.449472       1
       10811.962       66.466868       19.711432       1
       10823.719       66.803098       24.284167       1
       10835.475       50.270484       20.437895       1
       10847.232       59.073518       23.940625       1
       10858.988       60.904329       20.356535       1
       10870.745       64.693120       23.967648       1
       10882.501       67.558343       19.358518       1
       10894.258       65.282898       23.913406       1
       10906.015       81.709663       19.474051       1
       10917.771       48.225054       21.445879       1
       10929.528       53.351164       19.035065       1
       10941.284       56.020641       23.652397       1
       10953.041       59.287665       19.252052       1
       10964.797       77.280339       23.812940       1
       10976.554       76.265108       20.339750       1
       10988.310       63.041573       23.780567       1
       11000.067       49.957569       19.144511       1
       11011.823       62.434611       23.678022       1
       11023.580       62.712201       19.475547       1
       11035.337       55.270322       23.513230       1
       11047.093       69.518448       20.334763       1
       11058.850       61.935354       23.291354       1
       11070.606       65.454819       19.163271       1
       11082.363       81.087914       23.713449       1
       11094.119       60.315881       21.577290       1
       11105.876       59.821938       23.457850       1
       11117.632       62.104036       19.048843       1
       11129.389       55.220728       23.534736       1
       11141.145       66.584486       19.090246       1
       11152.902       86.617869       23.817068       1
       11164.659       60.244148       19.104132       1
       11176.415       75.249520       23.686271       1
       11188.172       61.289210       19.904911       1
       11199.928       75.805475       23.597272       1
       11211.685       68.832079       19.162186       0
       11223.441       69.609093       23.607989       0
       11235.198       76.795768       21.625579       0
       11246.954       78.229400       23.547316       0
       11258.711       76.264656       19.246506       0
       11270.467       62.582742       23.489812       0
       11282.224       81.032590       19.158960       0
       11293.981       58.915358       23.475167       0
       11305.737       71.014076       19.125621       0
       11317.494       45.551985       23.295852       0
       11329.250       61.366607       19.320350       0
       11341.007       71.733321       24.315180       0
       11352.763       70.299503       20.297237       0
       11364.520       56.581127       25.820289       0
       11376.276       57.586265       22.208918       0
       11388.033       49.899025       29.056995       0
       11399.789       62.027230       25.784297       0
       11411.546       59.947301       34.602815       0
       11423.303       67.018735       31.557791       0
       11435.059       60.658473       43.369043       0
       11446.816       56.103938       39.963997       0
       11458.572       75.383192       57.575465       0
       11470.329       60.372266       51.598868       0
       11482.085       51.127976       69.868837       0
       11493.842       70.612157       62.801922       0
       11505.598       40.655830       85.103182       0
       11517.355       38.740429       75.496030       0
       11529.112       80.037523       103.84708       0
       11540.868      -3.1645044       96.030120       0
       11552.625      -38.649674       133.04903       0
       11564.381       92.997989       130.85418       0
       11576.138      -115.08556       189.19904       0
       11587.894       10.934070       189.69736       0
       11599.651      -53.603443       287.41102       0
       11611.407       29.296191       289.13799       0
       11623.164      -278.19898       428.55495       0
       11634.920       211.70253       498.37414       0
       11646.677      -161.13083       625.57387       0
       11658.434      -124.52103       614.34346       0
       11670.190      -147.83884       915.94614       0
       11681.947      -604.42630       960.93930       0
       11693.703       132.08876       1509.3303       0
       11705.460       179.03626       1606.7360       0
