#WAVELENGTH FLUX ERROR MASK
       7484.8595      -559.27362       422.74491       0
       7496.6161      -9830.3138       318.02614       0
       7508.3726      -5160.6075       366.13894       0
       7520.1292       7722.1788       275.37041       0
       7531.8857      -7360.2238       312.91378       0
       7543.6422      -5236.4208       228.92501       0
       7555.3988      -1947.2207       256.26662       0
       7567.1553       3127.1035       185.30977       0
       7578.9119      -8670.1941       198.58202       0
       7590.6684      -2461.5729       147.48847       0
       7602.4250      -967.50554       169.17082       0
       7614.1815       1586.6752       126.98108       0
       7625.9381      -589.44574       145.12802       0
       7637.6946      -608.78323       108.78140       0
       7649.4512       1695.7046       126.36628       0
       7661.2077      -474.59397       93.648009       0
       7672.9643      -691.73497       104.83113       0
       7684.7208       72.050143       79.029965       0
       7696.4774      -820.75160       86.948969       0
       7708.2339      -464.66042       66.544340       0
       7719.9904      -318.18092       74.505233       0
       7731.7470      -309.05974       58.498568       0
       7743.5035       390.31122       68.701674       0
       7755.2601      -105.46677       53.098690       0
       7767.0166      -194.91907       62.760426       0
       7778.7732      -234.95103       49.463006       0
       7790.5297      -60.478723       59.031813       0
       7802.2863      -210.31433       44.916056       0
       7814.0428       125.36143       52.744271       0
       7825.7994       97.129114       41.096201       0
       7837.5559       15.893356       47.119716       0
       7849.3125      -27.646612       36.986886       0
       7861.0690       17.339511       43.413784       0
       7872.8255       130.84903       33.890786       0
       7884.5821      -18.879831       39.962455       0
       7896.3386       41.938649       31.462308       0
       7908.0952       147.20528       37.564787       0
       7919.8517       60.674902       29.731113       0
       7931.6083       179.04199       36.005660       0
       7943.3648       8.7305546       29.258854       0
       7955.1214       22.801000       34.345777       0
       7966.8779       16.596870       26.784428       0
       7978.6345       156.13707       33.397846       0
       7990.3910      -49.279334       25.853386       0
       8002.1476       154.86018       32.220518       0
       8013.9041      -5.5154247       25.166549       0
       8025.6607       139.96317       31.281993       0
       8037.4172       46.325084       24.677124       0
       8049.1737      -13.381709       30.270647       0
       8060.9303       44.491320       24.295074       0
       8072.6868       88.307524       25.894215       0
       8084.4434       70.750337       24.023202       0
       8096.1999       105.12110       32.911727       0
       8107.9565       190.33395       23.854831       0
       8119.7130       147.79777       29.085804       0
       8131.4696       93.013939       23.044381       0
       8143.2261       85.259478       31.512034       0
       8154.9827       33.762701       22.416238       1
       8166.7392      -4.7210406       27.632680       1
       8178.4958       107.17984       22.376705       1
       8190.2523      -3.5011224       27.290377       1
       8202.0088       46.965442       21.904005       1
       8213.7654       58.929259       30.144554       1
       8225.5219       82.277052       21.560316       1
       8237.2785       93.746408       29.482292       1
       8249.0350       139.33364       21.138114       1
       8260.7916       63.533616       29.062696       1
       8272.5481       90.667977       20.338878       1
       8284.3047       113.86739       24.895385       1
       8296.0612       117.81130       20.086448       1
       8307.8178       134.99007       24.817770       1
       8319.5743       162.47258       21.013456       1
       8331.3309       109.74965       24.079303       1
       8343.0874       99.778263       19.434071       1
       8354.8440       177.47686       24.149955       1
       8366.6005       115.09924       19.198541       1
       8378.3570       129.79024       23.784556       1
       8390.1136       99.491935       18.967700       1
       8401.8701       104.97419       23.423713       1
       8413.6267       90.582117       18.658837       1
       8425.3832       109.24793       22.998000       1
       8437.1398       139.02701       19.502338       1
       8448.8963       98.838261       22.719762       1
       8460.6529       101.14271       18.501891       1
       8472.4094       104.63446       22.326707       1
       8484.1660       40.684139       18.037763       1
       8495.9225       103.13794       22.027429       1
       8507.6791       134.38549       21.190313       1
       8519.4356       148.61782       22.031769       1
       8531.1922       119.23663       17.201688       1
       8542.9487       139.54576       21.790006       1
       8554.7052       122.04683       17.495987       1
       8566.4618       100.15227       21.508676       1
       8578.2183       122.66238       17.417195       1
       8589.9749       130.09890       21.538334       1
       8601.7314       105.40643       17.281327       1
       8613.4880       128.65580       21.524456       1
       8625.2445       86.953475       17.137048       1
       8637.0011       133.02379       21.508562       1
       8648.7576       112.36638       17.110104       1
       8660.5142       74.803714       21.124607       1
       8672.2707       66.750811       16.735502       1
       8684.0273       106.05755       20.886983       1
       8695.7838       65.161053       16.621756       1
       8707.5403       54.702560       20.267150       1
       8719.2969       139.46216       16.522201       1
       8731.0534       89.897924       20.127877       1
       8742.8100       142.87940       16.250837       1
       8754.5665       98.910854       19.894263       1
       8766.3231       105.77706       15.988125       1
       8778.0796       145.51438       19.700450       1
       8789.8362       95.246706       15.792591       1
       8801.5927       71.933099       19.131113       1
       8813.3493       157.06188       15.935292       1
       8825.1058       114.76210       16.969989       1
       8836.8624       128.37294       15.623099       1
       8848.6189       74.789807       18.887763       1
       8860.3755       105.77646       15.364355       1
       8872.1320       143.75286       19.066107       1
       8883.8885       128.18517       15.332527       1
       8895.6451       93.008785       16.170664       1
       8907.4016       96.554802       15.085068       1
       8919.1582       89.971590       18.538750       1
       8930.9147       118.59080       15.009092       1
       8942.6713       103.76935       20.662124       1
       8954.4278       124.21916       14.875134       1
       8966.1844       128.53125       20.522777       1
       8977.9409       128.55130       14.816118       1
       8989.6975       120.39939       18.145847       1
       9001.4540       114.64831       14.613204       1
       9013.2106       96.580691       17.957263       1
       9024.9671       112.09762       14.788883       1
       9036.7236       144.34855       18.116291       1
       9048.4802       118.46891       14.752246       1
       9060.2367       132.79138       18.022732       1
       9071.9933       117.96970       15.236826       1
       9083.7498       96.107576       17.593156       1
       9095.5064       103.85500       14.276253       1
       9107.2629       117.01335       17.485708       1
       9119.0195       134.26997       14.273532       1
       9130.7760       90.709480       17.283845       1
       9142.5326       105.60453       14.010273       1
       9154.2891       87.766007       17.178068       1
       9166.0457       99.873223       13.840460       1
       9177.8022       61.125623       16.794023       1
       9189.5588       111.22342       13.779387       1
       9201.3153       129.82349       17.028508       1
       9213.0718       109.87769       13.653875       1
       9224.8284       100.65241       16.804810       1
       9236.5849       112.56372       13.615196       1
       9248.3415       105.88941       16.742145       1
       9260.0980       97.366954       13.368716       1
       9271.8546       88.936430       16.542626       1
       9283.6111       93.433880       13.311569       1
       9295.3677       117.09783       16.610220       1
       9307.1242       110.33312       13.338915       1
       9318.8808       104.65036       16.499733       1
       9330.6373       98.140449       13.237265       1
       9342.3939       130.39138       16.548212       1
       9354.1504       113.99480       13.239466       1
       9365.9070       128.74469       16.377067       1
       9377.6635       103.70322       13.144117       1
       9389.4200       120.63979       16.305663       1
       9401.1766       106.24247       13.080046       1
       9412.9331       120.18541       16.177355       1
       9424.6897       111.10071       13.010146       1
       9436.4462       74.509789       15.946611       1
       9448.2028       120.49864       12.884442       1
       9459.9593       78.640322       15.748142       1
       9471.7159       108.10627       12.836540       1
       9483.4724       88.194900       15.822595       1
       9495.2290       118.09469       12.828698       1
       9506.9855       108.77874       15.863509       1
       9518.7421       100.06933       12.720577       1
       9530.4986       120.68860       15.828821       1
       9542.2551       108.01402       12.672312       1
       9554.0117       112.93271       15.698848       1
       9565.7682       99.838652       12.562725       1
       9577.5248       71.585866       13.632075       1
       9589.2813       121.97089       12.608803       1
       9601.0379       85.623655       15.459274       1
       9612.7944       107.62501       13.383283       1
       9624.5510       106.54009       15.441345       1
       9636.3075       112.99693       13.416084       1
       9648.0641       125.97662       15.423306       1
       9659.8206       113.50547       13.367414       1
       9671.5772       115.38835       15.369068       1
       9683.3337       108.57498       12.396539       1
       9695.0903       117.75535       15.261764       1
       9706.8468       114.34834       12.379908       1
       9718.6033       109.73846       15.190240       1
       9730.3599       86.704120       12.175025       1
       9742.1164       133.50088       15.250364       1
       9753.8730       103.34523       12.205308       1
       9765.6295       100.60831       15.072904       1
       9777.3861       128.37125       12.222260       1
       9789.1426       116.34089       15.129861       1
       9800.8992       88.326744       12.075228       1
       9812.6557       101.22436       14.989454       1
       9824.4123       100.70153       12.125441       1
       9836.1688       100.20229       14.967501       1
       9847.9254       131.21989       12.193914       1
       9859.6819       133.25870       15.056171       1
       9871.4384       109.65233       12.078390       1
       9883.1950       95.309372       14.828656       1
       9894.9515       110.72910       12.024265       1
       9906.7081       99.739336       14.831161       1
       9918.4646       110.69351       12.014427       1
       9930.2212       113.15555       14.848667       1
       9941.9777       99.449630       11.957745       1
       9953.7343       87.479099       14.697031       1
       9965.4908       94.007496       11.782808       1
       9977.2474       131.04467       15.152570       1
       9989.0039       118.44762       11.889067       1
       10000.760       98.946965       14.931861       1
       10012.517       115.25322       11.774818       1
       10024.274       113.79696       14.697362       1
       10036.030       97.221273       11.704318       1
       10047.787       100.42057       14.441666       1
       10059.543       111.03803       14.126229       1
       10071.300       84.935130       14.410119       1
       10083.056       124.30013       11.748900       1
       10094.813       99.305384       14.361431       1
       10106.569       119.93873       11.758825       1
       10118.326       116.62427       14.370722       1
       10130.082       128.11957       11.740817       1
       10141.839       93.199526       14.347861       1
       10153.596       107.50983       11.587409       1
       10165.352       102.98474       14.286981       1
       10177.109       129.20002       11.657723       1
       10188.865       97.792676       14.249782       1
       10200.622       95.371065       11.465111       1
       10212.378       82.192300       14.075927       1
       10224.135       119.22213       11.583482       1
       10235.891       109.44715       14.097747       1
       10247.648       102.98047       11.429180       1
       10259.404       109.26337       14.115497       1
       10271.161       91.283025       11.336699       1
       10282.918       102.77256       13.997530       1
       10294.674       111.48541       12.110840       1
       10306.431       128.06037       14.059376       1
       10318.187       133.36042       12.202789       1
       10329.944       109.99489       5754699.2       1
       10341.700       112.04416       11.270082       1
       10353.457       102.71764       13.894834       1
       10365.213       111.60259       12.035536       1
       10376.970       111.71545       13.912385       1
       10388.726       109.82968       11.954088       1
       10400.483       99.863831       13.884439       1
       10412.240       105.60625       11.232518       1
       10423.996       111.17969       13.838310       1
       10435.753       98.318710       11.169056       1
       10447.509       117.44099       13.908231       1
       10459.266       110.61744       11.201569       1
       10471.022       108.04323       13.707274       1
       10482.779       91.382856       11.915708       1
       10494.535       111.74344       13.805538       1
       10506.292       123.14138       11.257178       1
       10518.049       118.95684       13.910289       1
       10529.805       106.96279       11.185107       1
       10541.562       114.35567       13.909544       1
       10553.318       130.25180       11.280175       1
       10565.075       97.176144       12.125498       1
       10576.831       129.67400       11.282815       1
       10588.588       114.26783       13.817828       1
       10600.344       104.40911       11.147760       1
       10612.101       130.06037       13.826312       1
       10623.857       119.23831       11.148635       1
       10635.614       102.10798       13.619758       1
       10647.371       99.255649       10.948808       1
       10659.127       120.08840       13.703802       1
       10670.884       105.36421       10.960968       1
       10682.640       117.95569       13.581632       1
       10694.397       121.66482       11.037787       1
       10706.153       102.91436       13.512325       1
       10717.910       96.260245       10.909903       1
       10729.666       126.77376       13.628529       1
       10741.423       112.41895       10.948109       1
       10753.179       107.92008       13.513120       1
       10764.936       108.84409       10.970619       1
       10776.693       118.71660       13.532942       1
       10788.449       117.32518       10.958322       1
       10800.206       104.28657       13.493009       1
       10811.962       124.88904       11.024218       1
       10823.719       105.82653       13.393153       1
       10835.475       129.41363       10.992864       1
       10847.232       93.084435       13.333379       1
       10858.988       104.04884       10.838936       1
       10870.745       107.60187       13.401867       1
       10882.501       88.047115       10.767572       1
       10894.258       121.17066       13.441705       1
       10906.015       115.36272       10.850015       1
       10917.771       102.26722       13.264903       1
       10929.528       89.529892       10.738322       1
       10941.284       45.696913       11.424806       1
       10953.041       103.47461       11.432368       1
       10964.797       125.73572       13.340951       1
       10976.554       113.57159       10.839928       1
       10988.310       120.07271       13.406042       1
       11000.067       112.62534       10.798369       1
       11011.823       95.374261       13.222132       1
       11023.580       109.47938       11.037754       1
       11035.337       99.659489       13.170902       1
       11047.093       105.34324       10.930705       1
       11058.850       113.04047       13.322798       1
       11070.606       89.962297       10.690094       1
       11082.363       104.12797       13.272084       1
       11094.119       120.96820       10.793299       1
       11105.876       98.808512       13.239474       1
       11117.632       112.64751       10.760841       1
       11129.389       122.49311       13.270176       1
       11141.145       101.91550       10.721929       1
       11152.902       86.379842       11.646049       1
       11164.659       111.95548       10.763316       1
       11176.415       113.78349       13.326815       1
       11188.172       102.44787       12.833132       1
       11199.928       104.91138       13.242465       1
       11211.685       108.68979       10.734443       0
       11223.441       111.20463       13.310617       0
       11235.198       117.87813       10.754931       0
       11246.954       110.40395       13.248188       0
       11258.711       94.236445       10.691819       0
       11270.467       119.21870       13.319012       0
       11282.224       116.67177       10.749923       0
       11293.981       118.78536       13.313625       0
       11305.737       114.73909       10.752551       0
       11317.494       109.31643       13.291453       0
       11329.250       101.62281       10.794280       0
       11341.007       123.93417       13.534127       0
       11352.763       101.48093       11.024774       0
       11364.520       110.63847       13.887403       0
       11376.276       100.13120       11.519445       0
       11388.033       95.088595       14.650951       0
       11399.789       118.53829       12.446098       0
       11411.546       132.29743       16.094765       0
       11423.303       97.869585       13.626456       0
       11435.059       45.538216       17.340468       0
       11446.816       109.27834       15.318525       0
       11458.572       92.384680       20.009700       0
       11470.329       106.10770       17.184856       0
       11482.085       58.776869       21.872229       0
       11493.842       80.225363       18.959355       0
       11505.598       56.601563       24.227182       0
       11517.355       160.68780       21.172746       0
       11529.112       94.286427       26.906150       0
       11540.868       111.76003       23.628074       0
       11552.625       89.366782       30.669656       0
       11564.381      -86.836118       26.676274       0
       11576.138      -7.6069102       36.059360       0
       11587.894       60.841258       32.713151       0
       11599.651      -25.559190       44.481788       0
       11611.407      -65.862081       40.222109       0
       11623.164      -81.333481       54.136732       0
       11634.920      -6.8938831       49.100646       0
       11646.677       235.20557       66.005911       0
       11658.434       613.34654       59.293967       0
       11670.190       1584.8767       81.073554       0
       11681.947      -720.38150       73.228623       0
       11693.703       301.05728       101.07413       0
       11705.460      -1095.4639       93.686193       0
