#WAVELENGTH FLUX ERROR MASK
       7484.8595      -7430.2953       425.81726       0
       7496.6161      -7297.4336       321.71849       0
       7508.3726      -11133.147       364.30501       0
       7520.1292      -7617.9617       272.06645       0
       7531.8857      -2288.6651       314.72981       0
       7543.6422       216.78022       230.94672       0
       7555.3988      -7030.9909       251.32676       0
       7567.1553      -5863.5205       182.06983       0
       7578.9119      -1638.3134       202.46346       0
       7590.6684      -2459.2047       153.63300       0
       7602.4250       1489.2081       168.75610       0
       7614.1815      -947.30432       125.54637       0
       7625.9381       410.18685       142.65744       0
       7637.6946      -1136.9061       108.02642       0
       7649.4512       605.55344       124.73480       0
       7661.2077      -768.19058       92.715872       0
       7672.9643      -394.01672       105.77744       0
       7684.7208      -748.09601       79.262053       0
       7696.4774       41.830397       89.148924       0
       7708.2339      -429.25564       76.634692       0
       7719.9904       27.763581       76.975555       0
       7731.7470      -399.18110       61.293476       0
       7743.5035      -18.877548       63.305963       0
       7755.2601       191.63589       53.657413       0
       7767.0166      -71.810631       63.468465       0
       7778.7732      -134.66820       49.337554       0
       7790.5297       65.120138       58.774286       0
       7802.2863      -259.37248       44.673476       0
       7814.0428       38.711201       53.106416       0
       7825.7994       6.7597757       41.122075       0
       7837.5559       119.83046       47.981375       0
       7849.3125       78.582401       37.637176       0
       7861.0690       139.03995       43.814323       0
       7872.8255       112.28713       34.558882       0
       7884.5821       50.153230       40.023836       0
       7896.3386       16.990527       31.408908       0
       7908.0952       20.259128       37.805245       0
       7919.8517       67.061345       29.685962       0
       7931.6083       145.28874       36.025455       0
       7943.3648      -22.250626       31.943044       0
       7955.1214       51.056069       34.415443       0
       7966.8779      -4.1636467       27.044973       0
       7978.6345       216.81700       33.259292       0
       7990.3910       64.958645       26.156086       0
       8002.1476      0.23961263       31.610988       0
       8013.9041       15.930325       25.279382       0
       8025.6607       53.391295       31.076636       0
       8037.4172       155.08362       24.879129       0
       8049.1737       30.170253       30.203164       0
       8060.9303      -39.340242       23.553114       0
       8072.6868       97.040720       29.661007       0
       8084.4434       8.9705029       23.465450       0
       8096.1999      -13.353486       31.530409       0
       8107.9565      -29.826777       23.179046       0
       8119.7130       117.35397       31.493264       0
       8131.4696       24.439767       22.908770       0
       8143.2261      -1.1259988       32.350512       0
       8154.9827       48.763561       22.728699       1
       8166.7392       85.012153       32.247826       1
       8178.4958       32.438685       22.106289       1
       8190.2523       57.017955       9476047.2       1
       8202.0088       61.572911       21.924265       1
       8213.7654       63.535385       26.859925       1
       8225.5219       59.561187       21.522813       1
       8237.2785      -6.6291621       30.166355       1
       8249.0350       13.496917       20.806151       1
       8260.7916       26.159349       25.416221       1
       8272.5481       30.465291       20.428078       1
       8284.3047      -8.1101729       24.692284       1
       8296.0612       34.883301       19.781559       1
       8307.8178      -14.704118       24.310958       1
       8319.5743       35.041094       19.489739       1
       8331.3309       19.392185       23.626701       1
       8343.0874       74.644704       20.329400       1
       8354.8440       85.008484       23.596769       1
       8366.6005       18.703445       19.729750       1
       8378.3570       55.618269       23.343176       1
       8390.1136       33.760056       21.324410       1
       8401.8701       66.159056       23.115161       1
       8413.6267       53.761379       18.434058       1
       8425.3832       28.456894       22.583492       1
       8437.1398       28.582633       18.116286       1
       8448.8963       75.950071       22.474163       1
       8460.6529       56.671752       18.268977       1
       8472.4094      -17.385270       21.927755       1
       8484.1660       74.010845       18.115480       1
       8495.9225       79.578138       21.974698       1
       8507.6791       44.240889       17.455421       1
       8519.4356       118.24954       21.877950       1
       8531.1922       39.386199       17.937140       1
       8542.9487      -7.2430374       21.706317       1
       8554.7052       71.973699       17.339854       1
       8566.4618       55.427701       21.182551       1
       8578.2183       74.093185       19.711478       1
       8589.9749       50.744439       21.134448       1
       8601.7314       79.603878       17.263597       1
       8613.4880       81.089534       21.380536       1
       8625.2445       22.488652       16.959615       1
       8637.0011       43.783632       21.526042       1
       8648.7576       51.138991       17.807422       1
       8660.5142       69.252028       21.436644       1
       8672.2707       86.141778       16.881004       1
       8684.0273       57.324318       20.719831       1
       8695.7838       30.387744       16.521465       1
       8707.5403       44.304706       20.346262       1
       8719.2969       92.985493       16.410097       1
       8731.0534       66.283184       19.994359       1
       8742.8100       64.066399       15.935754       1
       8754.5665       59.767066       19.728034       1
       8766.3231       59.525243       18.406874       1
       8778.0796       47.826432       19.359368       1
       8789.8362       65.862081       15.743052       1
       8801.5927       44.242305       19.173902       1
       8813.3493       40.679079       15.720901       1
       8825.1058       8.5760333       18.854277       1
       8836.8624       77.505851       15.391128       1
       8848.6189       48.484997       18.791197       1
       8860.3755       36.684253       15.072866       1
       8872.1320       22.540079       18.484828       1
       8883.8885       44.831958       15.064779       1
       8895.6451       68.628614       18.527112       1
       8907.4016       76.290424       15.016184       1
       8919.1582       70.961346       18.373416       1
       8930.9147       46.185211       14.820090       1
       8942.6713       61.153751       18.293436       1
       8954.4278       63.801350       14.613860       1
       8966.1844       51.841665       18.085695       1
       8977.9409       65.404818       14.586687       1
       8989.6975       59.486531       17.932494       1
       9001.4540       45.619586       14.385394       1
       9013.2106       42.248915       17.640918       1
       9024.9671       88.642252       14.561657       1
       9036.7236       72.748900       17.782638       1
       9048.4802       47.327257       14.667427       1
       9060.2367       32.132745       17.539393       1
       9071.9933       40.365439       14.094782       1
       9083.7498       80.561433       17.486131       1
       9095.5064       47.290408       14.716432       1
       9107.2629       76.724761       17.487204       1
       9119.0195       34.852413       13.886853       1
       9130.7760       32.282802       15.671318       1
       9142.5326       75.429771       13.907513       1
       9154.2891       67.292478       17.005512       1
       9166.0457       50.336947       13.590983       1
       9177.8022       55.645217       16.867956       1
       9189.5588       60.008005       13.458419       1
       9201.3153       41.173345       16.461005       1
       9213.0718       76.408274       13.502403       1
       9224.8284       81.772707       16.745771       1
       9236.5849       71.957594       14.709237       1
       9248.3415       66.908179       16.514140       1
       9260.0980       68.131367       13.335129       1
       9271.8546       38.387262       16.343537       1
       9283.6111       65.697177       13.247162       1
       9295.3677       56.736846       16.378471       1
       9307.1242       53.959264       13.078726       1
       9318.8808       53.902946       16.271807       1
       9330.6373       68.623446       13.068489       1
       9342.3939       53.423921       14.765748       1
       9354.1504       65.806990       13.087262       1
       9365.9070       47.234213       16.060802       1
       9377.6635       65.822672       12.969568       1
       9389.4200       91.683575       16.191034       1
       9401.1766       54.337981       14.899951       1
       9412.9331       43.762813       15.715407       1
       9424.6897       60.480503       12.810522       1
       9436.4462       67.573883       15.874821       1
       9448.2028       79.499722       13.281644       1
       9459.9593       52.110440       15.678920       1
       9471.7159       64.449357       12.654318       1
       9483.4724       61.754192       15.719737       1
       9495.2290       78.169438       12.562588       1
       9506.9855       54.279842       15.576785       1
       9518.7421       73.928221       12.619979       1
       9530.4986       42.479754       15.161730       1
       9542.2551       78.966762       12.573426       1
       9554.0117       46.564135       15.410638       1
       9565.7682       60.935342       12.451821       1
       9577.5248       51.393916       15.311367       1
       9589.2813       35.709957       12.489722       1
       9601.0379       66.065546       15.364172       1
       9612.7944       68.829388       12.905147       1
       9624.5510       70.071787       15.238880       1
       9636.3075       71.182986       12.935567       1
       9648.0641       74.080788       15.229782       1
       9659.8206       51.320672       12.763608       1
       9671.5772       47.702289       15.159002       1
       9683.3337       48.902703       12.107888       1
       9695.0903       84.035702       15.152841       1
       9706.8468       55.005161       12.117929       1
       9718.6033       42.006029       14.936733       1
       9730.3599       50.110354       11.981781       1
       9742.1164       56.656671       14.964957       1
       9753.8730       62.589391       12.027257       1
       9765.6295       43.960083       14.711360       1
       9777.3861       44.300466       11.890781       1
       9789.1426       73.691395       14.880519       1
       9800.8992       58.884739       11.929839       1
       9812.6557       62.008230       14.764672       1
       9824.4123       54.743978       13.442231       1
       9836.1688       62.300109       14.753170       1
       9847.9254       70.278106       11.948005       1
       9859.6819       72.379734       14.704492       1
       9871.4384       57.928959       11.819723       1
       9883.1950       68.173297       14.650113       1
       9894.9515       70.393464       11.825904       1
       9906.7081       53.797056       14.538851       1
       9918.4646       64.857846       11.841496       1
       9930.2212       39.952225       14.433330       1
       9941.9777       71.037771       11.763357       1
       9953.7343       57.927034       14.435867       1
       9965.4908       69.510371       11.736261       1
       9977.2474       46.001677       14.357803       1
       9989.0039       66.365259       11.686992       1
       10000.760       43.999532       14.250382       1
       10012.517       71.391492       11.603293       1
       10024.274       75.412213       14.348825       1
       10036.030       62.075003       11.506528       1
       10047.787       65.132870       14.193860       1
       10059.543       74.162806       11.572493       1
       10071.300       65.969998       14.296977       1
       10083.056       57.635796       11.469158       1
       10094.813       63.078423       4886061.9       1
       10106.569       58.340454       11.511171       1
       10118.326       59.840100       14.133477       1
       10130.082       78.030624       11.525199       1
       10141.839       69.209575       14.234267       1
       10153.596       71.171541       11.448099       1
       10165.352       57.652704       14.105587       1
       10177.109       66.354011       11.387416       1
       10188.865       53.142808       14.017715       1
       10200.622       66.066643       11.368722       1
       10212.378       71.662298       13.991756       1
       10224.135       80.811093       11.418561       1
       10235.891       68.704349       13.945280       1
       10247.648       76.227769       13.098582       1
       10259.404       67.117493       13.824477       1
       10271.161       61.255372       11.660089       1
       10282.918       81.561054       13.931582       1
       10294.674       67.535004       11.142408       1
       10306.431       81.271612       13.866756       1
       10318.187       72.464986       11.158127       1
       10329.944       72.783225       13.739180       1
       10341.700       57.172793       11.085118       1
       10353.457       48.421029       13.544869       1
       10365.213       57.284291       11.076290       1
       10376.970       66.637205       4685863.6       1
       10388.726       59.705197       11.051320       1
       10400.483       48.847620       13.561248       1
       10412.240       43.768375       10.960280       1
       10423.996       63.257790       13.544532       1
       10435.753       57.164686       10.986652       1
       10447.509       67.391997       13.616415       1
       10459.266       60.320890       11.014649       1
       10471.022       66.813401       13.548003       1
       10482.779       64.691750       12.461191       1
       10494.535       58.031407       13.519928       1
       10506.292       59.217347       12.015222       1
       10518.049       71.954864       13.639294       1
       10529.805       69.523928       11.023726       1
       10541.562       54.782465       13.557131       1
       10553.318       64.718957       11.443667       1
       10565.075       74.333906       13.637401       1
       10576.831       71.314350       11.043361       1
       10588.588       58.172548       13.501061       1
       10600.344       57.249617       10.878797       1
       10612.101       50.624429       13.315922       1
       10623.857       62.620699       10.847326       1
       10635.614       50.451434       13.312051       1
       10647.371       71.521812       11.386279       1
       10659.127       61.943815       13.251723       1
       10670.884       76.576391       10.844083       1
       10682.640       69.755925       13.259836       1
       10694.397       71.541495       10.817990       1
       10706.153       62.362114       12.135412       1
       10717.910       52.892305       10.674234       1
       10729.666       40.899321       13.034005       1
       10741.423       54.983908       10.707685       1
       10753.179       80.019221       13.277318       1
       10764.936       61.634431       10.686383       1
       10776.693       47.691714       12.006642       1
       10788.449       62.344209       10.663860       1
       10800.206       82.612890       13.321246       1
       10811.962       66.466868       10.746117       1
       10823.719       66.803098       13.250265       1
       10835.475       50.270484       11.164074       1
       10847.232       59.073518       13.096394       1
       10858.988       60.904329       11.153184       1
       10870.745       64.693120       13.151475       1
       10882.501       67.558343       10.636655       1
       10894.258       65.282898       13.152352       1
       10906.015       81.709663       10.718349       1
       10917.771       48.225054       11.808564       1
       10929.528       53.351164       10.483127       1
       10941.284       56.020641       13.026492       1
       10953.041       59.287665       10.601971       1
       10964.797       77.280339       13.111522       1
       10976.554       76.265108       11.197764       1
       10988.310       63.041573       13.093391       1
       11000.067       49.957569       10.543675       1
       11011.823       62.434611       13.046790       1
       11023.580       62.712201       10.737963       1
       11035.337       55.270322       12.973164       1
       11047.093       69.518448       11.227209       1
       11058.850       61.935354       12.865917       1
       11070.606       65.454819       10.589058       1
       11082.363       81.087914       13.104239       1
       11094.119       60.315881       11.922417       1
       11105.876       59.821938       12.958754       1
       11117.632       62.104036       10.520000       1
       11129.389       55.220728       12.993964       1
       11141.145       66.584486       10.537563       1
       11152.902       86.617869       13.145132       1
       11164.659       60.244148       10.543887       1
       11176.415       75.249520       13.075173       1
       11188.172       61.289210       10.991246       1
       11199.928       75.805475       13.035049       1
       11211.685       68.832079       10.589558       0
       11223.441       69.609093       13.050567       0
       11235.198       76.795768       11.957357       0
       11246.954       78.229400       13.020039       0
       11258.711       76.264656       10.640923       0
       11270.467       62.582742       12.987355       0
       11282.224       81.032590       10.594122       0
       11293.981       58.915358       12.984698       0
       11305.737       71.014076       10.578653       0
       11317.494       45.551985       12.856925       0
       11329.250       61.366607       10.614747       0
       11341.007       71.733321       13.232399       0
       11352.763       70.299503       10.888631       0
       11364.520       56.581127       13.568103       0
       11376.276       57.586265       11.355651       0
       11388.033       49.899025       14.356329       0
       11399.789       62.027230       12.213964       0
       11411.546       59.947301       15.626316       0
       11423.303       67.018735       13.489775       0
       11435.059       60.658473       17.487729       0
       11446.816       56.103938       15.135144       0
       11458.572       75.383192       20.500766       0
       11470.329       60.372266       17.297857       0
       11482.085       51.127976       22.144465       0
       11493.842       70.612157       18.919224       0
       11505.598       40.655830       24.387324       0
       11517.355       38.740429       20.613158       0
       11529.112       80.037523       26.842053       0
       11540.868      -3.1645044       23.341028       0
       11552.625      -38.649674       30.119666       0
       11564.381       92.997989       27.267227       0
       11576.138      -115.08556       35.984691       0
       11587.894       10.934070       32.585974       0
       11599.651      -53.603443       44.497500       0
       11611.407       29.296191       40.359212       0
       11623.164      -278.19898       54.022314       0
       11634.920       211.70253       57.168416       0
       11646.677      -161.13083       65.358331       0
       11658.434      -124.52103       58.750608       0
       11670.190      -147.83884       78.930453       0
       11681.947      -604.42630       73.184802       0
       11693.703       132.08876       101.24391       0
       11705.460       179.03626       95.160873       0
