#WAVELENGTH FLUX ERROR MASK
       7543.7762      -2902.8330       9219.5600       0
       7555.9709       799.24650       9170.2886       0
       7568.1656      -4020.1432       5725.5835       0
       7580.3603      -2112.5038       5750.5976       0
       7592.5549       5551.9026       3786.2433       0
       7604.7496      -3280.1408   2.1516265e+09       0
       7616.9443      -3115.7349       2621.1442       0
       7629.1390      -238.97693       2849.2130       0
       7641.3337       905.86685       2062.6669       0
       7653.5283       452.09876       2254.8766       0
       7665.7230      -298.60751       1485.7690       0
       7677.9177       488.14208       1585.8494       0
       7690.1124       310.64928       1036.5496       0
       7702.3070       1528.4633       1109.7424       0
       7714.5017       1424.3735       755.62104       0
       7726.6964      -225.86782       835.31132       0
       7738.8911      -1793.9988       1023.5371       0
       7751.0857      -249.30831       676.55208       0
       7763.2804      -856.72418       602.19665       0
       7775.4751       295.06208       582.07308       0
       7787.6698       123.50190       414.27858       0
       7799.8644       580.62997       487.73810       0
       7812.0591       654.36774       348.12102       0
       7824.2538       888.40382       398.40743       0
       7836.4485      -15.667451       276.31764       0
       7848.6431      -148.30626       313.51426       0
       7860.8378       473.02225       226.79183       0
       7873.0325      -173.26585       0.0000000       0
       7885.2272       464.49351       191.98850       0
       7897.4218       228.11303       225.97614       0
       7909.6165       148.78096       167.86407       0
       7921.8112       405.24400       203.61583       0
       7934.0059       466.55789       153.18498       0
       7946.2006       703.72912       242.97094       0
       7958.3952       129.37942       137.26474       0
       7970.5899       419.63509       169.54348       0
       7982.7846       171.64656       126.28401       0
       7994.9793       107.08767       155.81102       0
       8007.1739       294.81171       119.09102       0
       8019.3686      -174.80243       142.73815       0
       8031.5633       219.10600       111.63777       0
       8043.7580       344.91394       139.91175       0
       8055.9526       164.62243       107.34571       0
       8068.1473       464.61688       136.45373       0
       8080.3420       342.06955       104.64252       0
       8092.5367       335.73952       131.38415       0
       8104.7313       369.41233       97.467379       0
       8116.9260       136.56983       89.355162       0
       8129.1207       329.74717       93.605684       0
       8141.3154       312.77060       115.21487       0
       8153.5100       362.73527       91.155738       1
       8165.7047       385.46477       112.00962       1
       8177.8994       351.66761       97.997832       1
       8190.0941       362.10534       108.04595       1
       8202.2887       261.71223       93.425795       1
       8214.4834       388.90207       103.53585       1
       8226.6781       414.77932       90.336044       1
       8238.8728       330.36913       98.066957       1
       8251.0675       309.13682       79.196244       1
       8263.2621       390.93230       93.800159       1
       8275.4568       316.07702       72.797709       1
       8287.6515       309.80455       88.888408       1
       8299.8462       292.64342       69.412736       1
       8312.0408       356.56237       86.071789       1
       8324.2355       412.89478       67.776005       1
       8336.4302       353.78822       83.093167       1
       8348.6249       397.17087       65.836908       1
       8360.8195       441.39714       81.811609       1
       8373.0142       319.33137       63.690205       1
       8385.2089       347.64694       79.151800       1
       8397.4036       406.61045       62.535532       1
       8409.5982       305.19190       76.357706       1
       8421.7929       507.64828       61.590975       1
       8433.9876       398.84751       75.175288       1
       8446.1823       414.12622       59.190827       1
       8458.3769       431.06063       72.889086       1
       8470.5716       354.36869       56.949201       1
       8482.7663       340.24733       70.604450       1
       8494.9610       367.07308       55.693220       1
       8507.1556       389.81394       68.841541       1
       8519.3503       337.10771       53.922657       1
       8531.5450       353.82706       67.367518       1
       8543.7397       315.97413       53.265937       1
       8555.9343       314.64293       66.170251       1
       8568.1290       287.04209       50.178886       1
       8580.3237       267.37436       61.964959       1
       8592.5184       363.62837       50.689946       1
       8604.7131       320.08200       61.866616       1
       8616.9077       404.55682       50.420294       1
       8629.1024       401.20749       61.976300       1
       8641.2971       380.77629       50.278445       1
       8653.4918       321.98317       60.426928       1
       8665.6864       378.31637       48.920791       1
       8677.8811       479.81146       60.257708       1
       8690.0758       402.11381       47.715773       1
       8702.2705      -51.055679       0.0000000       1
       8714.4651       398.64140       45.964703       1
       8726.6598       331.23296       54.965242       1
       8738.8545       430.96923       44.755490       1
       8751.0492       376.12296       53.506007       1
       8763.2438       437.25788       43.925338       1
       8775.4385       394.66371       53.039960       1
       8787.6332       378.71920       42.635005       1
       8799.8279       409.86283       52.282782       1
       8812.0225       422.79564       41.919056       1
       8824.2172       329.69111       57.137982       1
       8836.4119       421.61626       41.059045       1
       8848.6066       337.41602       56.059400       1
       8860.8012       386.15620       40.231406       1
       8872.9959       466.88003       49.809101       1
       8885.1906       423.12214       39.797195       1
       8897.3853       388.79128       48.090320       1
       8909.5800       384.00787       39.201734       1
       8921.7746       320.55791       46.949455       1
       8933.9693       395.62217       38.562536       1
       8946.1640       438.10040       47.149297       1
       8958.3587       402.35473       37.784214       1
       8970.5533       353.26000       45.800856       1
       8982.7480       332.37651       36.643488       1
       8994.9427       347.76521       44.817094       1
       9007.1374       362.09388       36.366289       1
       9019.3320       308.18646       44.381657       1
       9031.5267       354.52606       36.320245       1
       9043.7214       331.40190       46.838475       1
       9055.9161       359.90472       37.383059       1
       9068.1107       388.55436       46.898588       1
       9080.3054       347.78966       40.689652       1
       9092.5001       386.22596       46.116550       1
       9104.6948       393.55106       36.324006       1
       9116.8894       377.24044       44.796954       1
       9129.0841       395.09173       39.489883       1
       9141.2788       378.61126       44.110323       1
       9153.4735       393.67246       34.987814       1
       9165.6681       392.88952       43.288460       1
       9177.8628       372.90297       34.193571       1
       9190.0575       361.59989       42.256842       1
       9202.2522       389.82307       33.731080       1
       9214.4469       421.80849       42.295564       1
       9226.6415       379.97715       33.200695       1
       9238.8362       408.66524       41.278163       1
       9251.0309       393.68858       33.043969       1
       9263.2256       376.85248       40.917802       1
       9275.4202       416.84427       32.725356       1
       9287.6149       380.67121       40.508932       1
       9299.8096       361.35152       32.189771       1
       9312.0043       380.47557       39.935885       1
       9324.1989       369.15479       31.862260       1
       9336.3936       151.82819       26.548327       1
       9348.5883       390.18630       31.546031       1
       9360.7830       389.69791       39.491858       1
       9372.9776       383.34862       31.439044       1
       9385.1723       381.47151       39.217253       1
       9397.3670       396.19632       31.164933       1
       9409.5617       354.10898       38.115306       1
       9421.7563       410.25541       30.721713       1
       9433.9510       403.99331       37.993472       1
       9446.1457       372.40049       30.166879       1
       9458.3404       349.40119       37.319658       1
       9470.5350       375.73737       29.974184       1
       9482.7297       389.76970       37.343995       1
       9494.9244       355.41123       29.537894       1
       9507.1191       446.74452       39.316756       1
       9519.3138       441.44600       30.728538       1
       9531.5084       485.93019       39.360136       1
       9543.7031       389.95978       30.192348       1
       9555.8978       343.33946       37.725667       1
       9568.0925       437.03053       30.191808       1
       9580.2871       430.06043       38.082926       1
       9592.4818       395.35417       35.556054       1
       9604.6765       425.95283       37.892201       1
       9616.8712       420.65226       29.521689       1
       9629.0658       382.88659       37.143651       1
       9641.2605       374.61520       28.854610       1
       9653.4552       458.59618       37.532349       1
       9665.6499       422.14200       29.012920       1
       9677.8445       439.17551       37.030596       1
       9690.0392       415.95739       28.709803       1
       9702.2339       418.13542       36.310870       1
       9714.4286       497.21190       28.785527       1
       9726.6232       482.22212       36.509419       1
       9738.8179       435.38780       28.156417       1
       9751.0126       447.26189       36.209583       1
       9763.2073       417.35194       27.989661       1
       9775.4019       352.90301       35.061768       1
       9787.5966       414.62568       27.815582       1
       9799.7913       425.90242       35.430846       1
       9811.9860       418.83967       27.835574       1
       9824.1807       357.38589       34.784532       1
       9836.3753       410.15870       27.521196       1
       9848.5700       416.89161       35.140998       1
       9860.7647       416.78539       27.544264       1
       9872.9594       394.04617       34.573738       1
       9885.1540       417.38034       27.263227       1
       9897.3487       446.45834       34.984364       1
       9909.5434       369.86426       26.955845       1
       9921.7381       370.37173       34.294364       1
       9933.9327       375.85357       26.689933       1
       9946.1274       377.38473       33.827967       1
       9958.3221       385.60059       26.413216       1
       9970.5168       389.39401       31.942939       1
       9982.7114       375.25025       25.326622       1
       9994.9061       358.42051       31.260626       1
       10007.101       365.62044       25.041897       1
       10019.295       382.39311       31.184262       1
       10031.490       341.80110       24.883584       1
       10043.685       352.20385       31.243021       1
       10055.879       342.08216       24.712476       1
       10068.074       361.30530       31.022406       1
       10080.269       363.02056       24.811598       1
       10092.464       340.73254       30.804303       1
       10104.658       314.94107       24.338157       1
       10116.853       360.27708       30.820494       1
       10129.048       357.11242       24.434461       1
       10141.242       330.89941       30.486292       1
       10153.437       328.44230       23.970589       1
       10165.632       363.56851       30.448562       1
       10177.826       353.31393       24.082706       1
       10190.021       368.17061       30.268523       1
       10202.216       391.47115       24.122303       1
       10214.410       375.12924       30.022489       1
       10226.605       335.61011       23.492255       1
       10238.800       397.75923       29.795178       1
       10250.994       378.42190       23.506133       1
       10263.189       401.85955       29.586434       1
       10275.384       398.73195       23.557167       1
       10287.578       447.40847       29.678850       1
       10299.773       429.07342       26.324960       1
       10311.968       396.52367       29.384181       1
       10324.162       424.13217       26.168022       1
       10336.357       410.83363       29.299549       1
       10348.552       419.36784       26.037375       1
       10360.746       442.03038       29.522234       1
       10372.941       512.09164       23.890534       1
       10385.136       562.45980       30.349637       1
       10397.330       540.64072       24.095522       1
       10409.525       454.00720       29.477974       1
       10421.720       416.78049       23.171915       1
       10433.914       418.60111       27.548343       1
       10446.109       378.96201       22.134164       1
       10458.304       354.71466       27.057893       1
       10470.498       382.99947       22.241566       1
       10482.693       360.85987       26.896630       1
       10494.888       345.13897       22.005353       1
       10507.083       392.46967       27.181559       1
       10519.277       357.26492       22.113930       1
       10531.472       364.82911       27.326912       1
       10543.667       344.55402       21.926519       1
       10555.861       396.56830       27.463638       1
       10568.056       370.77863       22.030672       1
       10580.251       369.01064       26.653088       1
       10592.445       366.28840       21.680256       1
       10604.640       369.60568       26.337418       1
       10616.835       374.65233       21.708215       1
       10629.029       312.79492       25.856688       1
       10641.224       371.50439       21.480782       1
       10653.419       341.42151       26.073639       1
       10665.613       364.45708       21.310908       1
       10677.808       334.01455       25.953563       1
       10690.003       336.72358       21.100076       1
       10702.197       390.56876       26.410094       1
       10714.392       330.71535       21.019453       1
       10726.587       300.77535       25.713418       1
       10738.781       340.47313       21.020947       1
       10750.976       319.60226       25.787807       1
       10763.171       365.84431       21.165440       1
       10775.365       353.01497       26.000614       1
       10787.560       359.84608       21.122325       1
       10799.755       344.66301       25.656345       1
       10811.949       380.70170       21.045090       1
       10824.144       379.62990       25.836063       1
       10836.339       328.72762       20.533278       1
       10848.533       362.41563       25.518128       1
       10860.728       378.95873       20.941068       1
       10872.923       357.89084       25.544536       1
       10885.117       327.19429       20.550419       1
       10897.312       357.83926       25.173606       1
       10909.507       338.45349       21.347021       1
       10921.701       174.52992       19.954155       1
       10933.896       345.40652       21.470250       1
       10946.091       333.50943       26.640227       1
       10958.286       349.45980       21.325287       1
       10970.480       392.01553       26.958054       1
       10982.675       348.55381       21.264671       1
       10994.870      -8.7105167       0.0000000       1
       11007.064       389.29408       21.591440       1
       11019.259       364.75856       26.892976       1
       11031.454       376.53230       21.555769       1
       11043.648       357.83020       26.799698       1
       11055.843       345.41723       21.321390       1
       11068.038       306.66562       26.398066       1
       11080.232       361.00738       21.461266       1
       11092.427       362.66728       26.906324       1
       11104.622       344.55892       21.337285       1
       11116.816       337.59634       26.578318       1
       11129.011       373.38185       21.468891       1
       11141.206       340.31144       26.593342       1
       11153.400       347.75246       21.305848       1
       11165.595       327.17576       26.610977       1
       11177.790       331.68858       23.549859       1
       11189.984       353.03096       26.739215       1
       11202.179       354.23449       21.376003       0
       11214.374       333.00002       26.464877       0
       11226.568       350.78969       21.320853       0
       11238.763       322.02768       26.450813       0
       11250.958       313.82038       23.931993       0
       11263.152       324.30997       26.917911       0
       11275.347       343.09212       22.114660       0
       11287.542       376.14777       38.107846       0
       11299.736       344.72584       23.739168       0
       11311.931       318.56946       41.596894       0
       11324.126       349.46300       27.219103       0
       11336.320       340.69699       49.279737       0
       11348.515       365.95373       33.233561       0
       11360.710       320.03988       46.266804       0
       11372.905       333.65766       43.553464       0
       11385.099       369.56951       63.279323       0
       11397.294       290.81473       55.728889       0
       11409.489       285.82297       80.066070       0
       11421.683       343.34696       70.076816       0
       11433.878       474.57936       98.684478       0
       11446.073       359.30252       86.061781       0
       11458.267       238.06789       121.95849       0
       11470.462       406.55280       112.38623       0
       11482.657       179.25828       166.05570       0
       11494.851       403.66376       157.94341       0
       11507.046      -134.67864       0.0000000       0
       11519.241       555.32511       242.97460       0
       11531.435       348.04734       382.92605       0
       11543.630       549.51050       377.84004       0
       11555.825      -179.77741       586.00143       0
       11568.019       1514.9512       571.73145       0
       11580.214      -5.7340883       866.37600       0
       11592.409      -55.411381       860.55859       0
       11604.603       1443.0873       1456.6613       0
       11616.798      -321.20550       1481.4399       0
       11628.993       3649.0929       2504.3864       0
       11641.187      -1903.8926       2583.4475       0
       11653.382       3662.1157       4267.4605       0
       11665.577       3871.2872       3865.1254       0
       11677.771       2677.7612       5128.5033       0
       11689.966      -351.76513       3993.0688       0
       11702.161       2675.8264       4981.8847       0
       11714.355       6397.4363       3820.4510       0
       11726.550      -1081.4900       4830.8954       0
       11738.745       3343.4691       4104.8220       0
       11750.939       9259.6574       5802.1719       0
       11763.134      -7087.5783       5320.6674       0
       11775.329      -7442.6502       7952.0876       0
       11787.523       15004.517       7729.0774       0
       11799.718       6084.4937       11431.388       0
       11811.913      -12998.777       10200.157       0
       11824.108       15047.153       15067.654       0
       11836.302       2679.4980       13209.474       0
       11848.497       16808.656       20503.643       0
       11860.692       20770.296       20331.361       0
       11872.886       34942.447       30530.703       0
       11885.081      -19819.368       27679.947       0
       11897.276      -39700.588       37709.471       0
       11909.470      -12285.816       30905.877       0
       11921.665       33522.218       38480.763       0
