#WAVELENGTH FLUX ERROR MASK
       10218.081       186.18159       2730.2907       0
       10241.722       2592.2655       2430.9708       0
       10265.362       1630.0875       2016.2018       0
       10289.002      -585.75772       1765.8910       0
       10312.642       2519.6666       1528.9163       0
       10336.283      -501.67899       1381.9509       0
       10359.923       422.12562       1219.7868       0
       10383.563      -50.967791       1146.0617       0
       10407.203       2382.3624       1028.0799       0
       10430.844       517.76744       936.63719       0
       10454.484       777.21345       785.36591       0
       10478.124      -141.09569       675.58455       0
       10501.764       415.07168       554.81068       0
       10525.405       252.98178       482.97934       0
       10549.045       711.54146       403.44496       0
       10572.685       564.47664       359.85095       0
       10596.325       281.62896       310.46981       0
       10619.966       239.93807       287.41956       0
       10643.606       396.85900       251.81681       0
       10667.246       191.79951       228.21502       0
       10690.886       587.38806       196.41767       0
       10714.527       247.04904       169.05317       0
       10738.167       436.07733       138.52533       0
       10761.807       183.21099       116.25143       0
       10785.447       305.65081       95.223857       0
       10809.088       240.67949       82.864101       0
       10832.728       230.68828       69.714763       0
       10856.368       291.78424       64.575862       0
       10880.008       256.53489       56.508314       0
       10903.649       301.98183       53.928930       0
       10927.289       262.75972       48.529134       0
       10950.929       291.17303       46.939574       0
       10974.569       259.70002       42.395332       0
       10998.210       195.21177       35.565408       0
       11021.850       250.08563       36.974883       1
       11045.490       274.73019       36.049706       1
       11069.130       166.69972       28.062743       1
       11092.771       249.43796       31.905008       1
       11116.411       271.38166       30.233723       1
       11140.051       263.76204       30.038793       1
       11163.691       255.17049       28.511523       1
       11187.332       255.29943       28.754818       1
       11210.972       259.79322       27.586455       1
       11234.612       281.08935       28.305258       1
       11258.252       244.98066       26.831346       1
       11281.893       235.61654       27.308724       1
       11305.533       231.83687       26.098726       1
       11329.173       258.70368       27.120239       1
       11352.813       166.91107       22.243998       1
       11376.454       248.68030       26.373418       1
       11400.094       257.32026       25.442448       1
       11423.734       247.12379       25.909730       1
       11447.374       251.80852       25.077470       1
       11471.015       256.58596       25.775392       1
       11494.655       275.98712       25.142096       1
       11518.295       232.61749       25.360360       1
       11541.935       235.02172       24.599777       1
       11565.576       259.47881       25.392833       1
       11589.216       249.99605       24.460971       1
       11612.856       233.33176       24.945779       1
       11636.496       266.62549       24.234020       1
       11660.137       260.91799       24.768834       1
       11683.777       258.74348       23.735039       1
       11707.417       248.97585       24.124566       1
       11731.057       237.02191       23.047207       1
       11754.698       246.46011       23.521274       1
       11778.338       253.04773       22.749102       1
       11801.978       238.87783       23.116622       1
       11825.618       254.99566       6823555.6       1
       11849.259       242.24171       22.660835       1
       11872.899       223.67119       21.667850       1
       11896.539       231.05684       22.213324       1
       11920.179       250.01265       21.649538       1
       11943.820       243.02767       22.134693       1
       11967.460       260.01531       21.493155       1
       11991.100       242.44265       21.722778       1
       12014.740       81.057704       14.161730       1
       12038.381       237.24924       21.462199       1
       12062.021       254.46575       20.859405       1
       12085.661       254.94601       21.372743       1
       12109.301       258.64214       20.646339       1
       12132.942       223.17325       20.864591       1
       12156.582       263.24707       20.417022       1
       12180.222       223.20115       20.601647       1
       12203.862       242.39267       20.043739       1
       12227.503       242.98033       20.510381       1
       12251.143       249.54437       19.479354       1
       12274.783       233.36809       20.113670       1
       12298.423       233.38468       19.460976       1
       12322.064       230.59460       19.921969       1
       12345.704       230.64857       19.317586       1
       12369.344       229.15720       19.780546       1
       12392.984       245.88444       19.336855       1
       12416.625       228.67095       19.621402       1
       12440.265       263.68192       19.264766       1
       12463.905       230.34752       19.487766       1
       12487.545       230.69657       18.766609       1
       12511.186       232.01977       19.363370       1
       12534.826       238.70059       18.834403       1
       12558.466       222.53460       19.108052       1
       12582.106       258.51345       18.899736       1
       12605.747       88.265389       13.350206       1
       12629.387       241.93219       18.636044       1
       12653.027       260.86208       19.379104       1
       12676.667       253.04654       18.652351       1
       12700.308       243.62669       19.021066       1
       12723.948       234.16217       18.308580       1
       12747.588       206.62139       18.381940       1
       12771.228       228.94732       17.977315       1
       12794.869       216.23026       18.254826       1
       12818.509       220.89167       17.718445       1
       12842.149       233.85167       18.326276       1
       12865.789       251.40276       17.953128       1
       12889.429       94.698944       12.860997       1
       12913.070       238.03374       17.722567       1
       12936.710       245.20137       18.133887       1
       12960.350       235.33820       17.404255       1
       12983.990       217.54992       17.690847       1
       13007.631       239.64335       17.314613       1
       13031.271       222.80596       17.532847       1
       13054.911       228.23087       16.902998       1
       13078.551       226.81845       17.425803       1
       13102.192       253.91688       16.943294       1
       13125.832       248.43528       17.567450       1
       13149.472       268.83479       17.112378       1
       13173.112       227.51632       17.194609       1
       13196.753       241.95460       16.640952       1
       13220.393       224.12655       16.896741       1
       13244.033       246.00319       16.603636       1
       13267.673       244.54622       16.918223       1
       13291.314       253.98348       16.476515       1
       13314.954       246.36079       16.858760       1
       13338.594       268.63839       16.582522       1
       13362.234       240.63811       16.789253       1
       13385.875       254.73279       16.370063       1
       13409.515       252.05685       16.846248       1
       13433.155       264.13281       16.275319       1
       13456.795       234.39130       16.416559       1
       13480.436       266.15795       16.155237       1
       13504.076       249.65940       16.372293       1
       13527.716       262.78586       16.037320       1
       13551.356       246.79729       16.295043       1
       13574.997       183.38888       13.886018       1
       13598.637       253.89696       16.322574       1
       13622.277       265.02154       15.901494       1
       13645.917       279.34921       16.563712       1
       13669.558       279.56570       16.014015       1
       13693.198       307.40952       16.767124       1
       13716.838       305.61180       16.256328       1
       13740.478       298.24322       16.696892       1
       13764.119       286.95184       16.073584       1
       13787.759       268.37461       16.455296       1
       13811.399       266.97659       15.864105       1
       13835.039       259.24199       16.356095       1
       13858.680       254.43887       15.780025       1
       13882.320       252.65181       16.281794       1
       13905.960       257.18434       15.717340       1
       13929.600       249.00147       16.098855       1
       13953.241       263.53789       15.714597       1
       13976.881       258.44628       16.110040       1
       14000.521       276.69099       15.730946       1
       14024.161       272.41798       16.103148       1
       14047.802       251.96783       15.373894       1
       14071.442       254.97622       15.804735       1
       14095.082       254.53422       15.225446       1
       14118.722       194.22166       13.596804       1
       14142.363       242.30253       15.100627       1
       14166.003       246.54393       15.547673       1
       14189.643       260.64636       14.110600       1
       14213.283       225.64665       15.327610       1
       14236.924       238.01825       14.890290       1
       14260.564       227.42989       15.211851       1
       14284.204       218.52465       14.604677       1
       14307.844       227.23343       15.108829       1
       14331.485       226.91273       14.554346       1
       14355.125       213.03740       14.897016       1
       14378.765       219.21392       14.479535       1
       14402.405       225.99236       4309355.4       1
       14426.046       232.09756       14.548858       1
       14449.686       218.56038       14.799162       1
       14473.326       222.81302       14.456707       1
       14496.966       228.69486       14.953297       1
       14520.607       226.28937       14.506475       1
       14544.247       222.50560       14.757075       1
       14567.887       207.16844       14.298274       1
       14591.527       233.36644       14.963461       1
       14615.168       219.27613       14.410588       1
       14638.808       221.86182       14.864584       1
       14662.448       213.21297       14.333657       1
       14686.088       221.10754       14.923555       1
       14709.729       64.007176       9.8867960       1
       14733.369       201.73961       14.714515       1
       14757.009       199.40550       14.230784       1
       14780.649       190.68032       14.671216       1
       14804.290       201.16448       14.285023       1
       14827.930       185.53501       14.590984       1
       14851.570       198.89250       14.232532       1
       14875.210       201.69045       14.675145       1
       14898.851       195.13641       14.114010       1
       14922.491       204.91554       14.595712       1
       14946.131       178.45401       13.818972       1
       14969.771       204.06124       14.493712       1
       14993.412       172.92037       13.647416       1
       15017.052       85.405547       10.088752       1
       15040.692       192.90089       13.843006       1
       15064.332       211.68491       14.493613       1
       15087.973       189.85064       13.809090       1
       15111.613       197.17611       14.331020       1
       15135.253       177.30992       13.739141       1
       15158.893       210.10744       14.423183       1
       15182.534       182.21160       13.701501       1
       15206.174       198.17567       14.246329       1
       15229.814       196.94056       13.793206       1
       15253.454       201.34619       14.252786       1
       15277.095       212.88952       13.954006       1
       15300.735       207.27134       14.304533       1
       15324.375       202.72987       13.827468       1
       15348.015       203.91165       14.271771       1
       15371.656       191.31912       13.726555       1
       15395.296       210.00506       14.380673       1
       15418.936       187.15859       13.715666       1
       15442.576       203.52806       14.296284       1
       15466.217       190.46439       13.736256       1
       15489.857       196.00878       14.251250       1
       15513.497       190.04901       13.803619       1
       15537.137       211.66054       14.445957       1
       15560.778       194.02535       13.775112       1
       15584.418       210.98030       14.376820       1
       15608.058       205.80545       13.816741       1
       15631.698       199.11754       14.359131       1
       15655.339       196.95420       13.873767       1
       15678.979       206.90756       14.387656       1
       15702.619       191.79456       13.725241       1
       15726.259       213.98805       14.329670       1
       15749.899       205.63781       13.811908       1
       15773.540       197.79508       14.168424       1
       15797.180       200.64164       13.756222       1
       15820.820       197.94960       14.074630       1
       15844.460       200.60916       13.696528       1
       15868.101       212.95474       14.282439       1
       15891.741       197.09727       13.725236       1
       15915.381       213.55158       14.358671       1
       15939.021       199.58369       13.823631       1
       15962.662       188.30300       14.097638       1
       15986.302       191.61977       13.720694       1
       16009.942       193.93173       14.122434       1
       16033.582       198.97976       13.847837       1
       16057.223       199.66835       14.218746       1
       16080.863       188.93793       13.771784       1
       16104.503       191.83947       14.119863       1
       16128.143       184.91621       13.744984       1
       16151.784       197.29812       14.272199       1
       16175.424       204.24703       13.949173       1
       16199.064       189.70062       14.319822       1
       16222.704       192.74096       13.996446       1
       16246.345       195.29169       14.481702       1
       16269.985       181.00612       13.962271       1
       16293.625       202.25178       14.662290       1
       16317.265       190.57023       14.092688       1
       16340.906       200.94142       14.645317       1
       16364.546       201.65698       14.245934       1
       16388.186       205.41873       14.767262       1
       16411.826       181.10882       14.124314       1
       16435.467       194.15958       14.698287       1
       16459.107       177.52864       14.167338       1
       16482.747       184.04859       14.739627       1
       16506.387       174.36211       14.313798       1
       16530.028       200.26700       15.312525       1
       16553.668       188.74112       15.045045       1
       16577.308       185.19395       15.973373       1
       16600.948       182.94571       16.116952       1
       16624.589       178.24310       17.401650       1
       16648.229       177.62935       18.000391       1
       16671.869       188.24525       20.135332       1
       16695.509       197.91363       21.227683       1
       16719.150       175.24555       23.904821       1
       16742.790       165.68213       25.632088       1
       16766.430       196.38602       30.171915       0
       16790.070       189.68700       33.043118       0
       16813.711       195.38205       38.741555       0
       16837.351       170.45733       42.444529       0
       16860.991       208.10068       49.700006       0
       16884.631       214.71416       54.442233       0
       16908.272       140.88649       54.609840       0
       16931.912       214.48318       68.058398       0
       16955.552       165.83323       77.706331       0
       16979.192       56.602930       61.366255       0
       17002.833       243.00223       97.467211       0
       17026.473       199.57163       105.25927       0
       17050.113       262.71449       121.88944       0
       17073.753       248.17338       130.44360       0
       17097.394       255.80298       149.46129       0
       17121.034       123.28796       159.76487       0
       17144.674       308.81223       188.86820       0
       17168.314       192.64171       207.20034       0
       17191.955       109.60659       248.97333       0
       17215.595       376.94017       281.17882       0
       17239.235       252.71078       330.19764       0
       17262.875       323.13902       363.07105       0
       17286.516       100.62776       418.68695       0
       17310.156      -57.454330       449.09772       0
       17333.796      -446.76706       508.95904       0
       17357.436       121.66922       548.31268       0
       17381.077       582.02184       636.61525       0
       17404.717       248.88722       688.61532       0
       17428.357       486.51451       788.48285       0
       17451.997       701.21121       823.31305       0
       17475.638       1286.4525       952.42050       0
       17499.278      -151.29636       1032.5721       0
       17522.918       673.27148       1300.5418       0
       17546.558       2322.4143       1623.0729       0
       17570.199       1439.1061       2255.0446       0
