#WAVELENGTH FLUX ERROR MASK
       10161.171       24859.776       3449.8946       0
       10183.656       22587.568       3175.2429       0
       10206.140       20430.793       2922.7326       0
       10228.625       16624.850       2480.9306       0
       10251.109       12884.350       2185.1750       0
       10273.593       9774.6044       1827.7118       0
       10296.078       11475.784       1650.3112       0
       10318.562       10761.485       1431.2138       0
       10341.046       9372.4944       1487.6194       0
       10363.531       8436.4962       1170.7817       0
       10386.015       9105.2892       1115.4429       0
       10408.499       6367.2608       968.27080       0
       10430.984       6860.0769       911.97170       0
       10453.468       4445.7940       754.50315       0
       10475.952       4654.7550       669.46177       0
       10498.437       3631.9577       549.81887       0
       10520.921       3270.2737       479.82993       0
       10543.406       3840.9652       413.08447       0
       10565.890       2985.7856       366.68580       0
       10588.374       2292.0912       312.12933       0
       10610.859       1862.8030       285.16734       0
       10633.343       1972.2035       254.26416       0
       10655.827       1914.7205       236.54225       0
       10678.312       1450.0718       200.81129       0
       10700.796       1265.8020       178.84790       0
       10723.280       1321.4909       150.23148       0
       10745.765       1052.3764       127.54198       0
       10768.249       831.41552       103.59418       0
       10790.734       782.47650       89.271356       0
       10813.218       760.79731       76.345094       0
       10835.702       639.06171       67.588465       0
       10858.187       651.74794       59.929321       0
       10880.671       575.91174       55.783274       0
       10903.155       541.82783       50.246858       0
       10925.640       449.83541       47.326399       0
       10948.124       491.78070       43.855626       0
       10970.608       478.47655       42.127115       0
       10993.093       429.38408       38.142786       0
       11015.577       323.84332       31.749820       1
       11038.062       444.13173       34.080739       1
       11060.546       416.45546       32.922962       1
       11083.030       405.89403       30.338902       1
       11105.515       381.18445       29.652030       1
       11127.999       397.99378       28.173254       1
       11150.483       286.17363       24.123666       1
       11172.968       273.90311       23.858722       1
       11195.452       284.62864       23.353034       1
       11217.936       386.78912       26.352518       1
       11240.421       399.79955       8568578.4       1
       11262.905       352.13520       25.581708       1
       11285.390       375.21820       26.075934       1
       11307.874       351.19052       25.078611       1
       11330.358       350.03776       25.485674       1
       11352.843       338.52758       8153939.6       1
       11375.327       400.10324       25.448544       1
       11397.811       378.13067       24.434558       1
       11420.296       372.19190       24.898633       1
       11442.780       364.08397       24.033254       1
       11465.264       363.33295       24.613770       1
       11487.749       353.88542       23.751607       1
       11510.233       345.64225       24.192034       1
       11532.718       349.15864       23.501513       1
       11555.202       342.97148       23.938561       1
       11577.686       333.75466       23.257075       1
       11600.171       345.12321       23.699997       1
       11622.655       330.29705       22.969010       1
       11645.139       334.58914       23.196990       1
       11667.624       332.73231       22.570318       1
       11690.108       331.03246       22.818536       1
       11712.592       347.15371       22.149734       1
       11735.077       307.36600       22.050942       1
       11757.561       345.80421       21.746473       1
       11780.046       313.47634       21.793332       1
       11802.530       317.53893       22.679682       1
       11825.014       335.75935       21.475318       1
       11847.499       290.65787       22.018644       1
       11869.983       324.43844       20.917216       1
       11892.467       327.87478       21.332240       1
       11914.952       324.15154       21.001640       1
       11937.436       321.73352       21.060726       1
       11959.920       303.74462       20.629490       1
       11982.405       309.74070       19.995042       1
       12004.889       286.64446       20.172336       1
       12027.374       308.94288       19.321829       1
       12049.858       292.14226       20.002878       1
       12072.342       313.03549       19.479522       1
       12094.827       291.99114       19.791764       1
       12117.311       284.82104       8854849.5       1
       12139.795       265.20409       19.316593       1
       12162.280       273.59586       18.565266       1
       12184.764       284.62069       19.364477       1
       12207.248       260.32031       18.457476       1
       12229.733       238.65224       18.561507       1
       12252.217       263.98768       18.311280       1
       12274.702       249.34045       18.521648       1
       12297.186       258.02832       17.961550       1
       12319.670       242.16289       18.377078       1
       12342.155       279.83483       18.142283       1
       12364.639       244.92597       18.273068       1
       12387.123       229.89319       17.497691       1
       12409.608       226.20491       17.801804       1
       12432.092       265.15827       17.549629       1
       12454.576       240.26912       17.724502       1
       12477.061       249.99581       17.320385       1
       12499.545       238.42727       17.716068       1
       12522.030       251.95435       17.315973       1
       12544.514       233.00676       17.612678       1
       12566.998       250.37709       17.191665       1
       12589.483       232.35021       17.322124       1
       12611.967       255.57398       17.232727       1
       12634.451       210.19591       17.199165       1
       12656.936       245.78703       17.027332       1
       12679.420       233.30119       17.104085       1
       12701.904       241.00730       16.984732       1
       12724.389       247.71478       16.847327       1
       12746.873       249.57577       16.803920       1
       12769.358       200.48335       16.566764       1
       12791.842       238.73434       16.427657       1
       12814.326       225.58383       16.640665       1
       12836.811       202.13697       15.947742       1
       12859.295       209.38863       16.485895       1
       12881.779       217.82507       16.015822       1
       12904.264       216.99548       16.407483       1
       12926.748       229.45584       16.111707       1
       12949.232       212.50633       16.275670       1
       12971.717       236.57392       15.879863       1
       12994.201       202.09856       15.912893       1
       13016.686       211.04385       15.479468       1
       13039.170       216.64542       15.840633       1
       13061.654       212.72483       15.418277       1
       13084.139       194.56725       15.467347       1
       13106.623       222.11136       15.412217       1
       13129.107       224.55457       15.632478       1
       13151.592       228.22476       15.337107       1
       13174.076       235.96948       15.663805       1
       13196.560       223.97799       15.103464       1
       13219.045       222.28307       15.419789       1
       13241.529       233.92904       15.075201       1
       13264.013       224.68538       4891575.4       1
       13286.498       233.06529       14.958409       1
       13308.982       237.12295       16.519977       1
       13331.467       231.46413       14.989283       1
       13353.951       239.32389       15.315738       1
       13376.435       243.85221       14.982145       1
       13398.920       249.92049       15.288726       1
       13421.404       235.07015       14.738671       1
       13443.888       244.58716       15.158023       1
       13466.373       225.99591       14.556875       1
       13488.857       227.88911       14.880121       1
       13511.341       188.88657       12.947853       1
       13533.826       230.32698       14.812979       1
       13556.310       233.29708       14.364132       1
       13578.795       239.34582       14.937465       1
       13601.279       231.75976       14.354273       1
       13623.763       254.15656       15.021747       1
       13646.248       257.03396       14.599269       1
       13668.732       276.29775       15.256720       1
       13691.216       283.29872       14.718160       1
       13713.701       278.95556       15.207893       1
       13736.185       286.35921       14.914054       1
       13758.669       253.04257       14.944058       1
       13781.154       251.07915       14.531940       1
       13803.638       243.81003       15.347783       1
       13826.123       239.90326       14.566591       1
       13848.607       238.11856       14.805729       1
       13871.091       226.59799       14.352357       1
       13893.576       232.09578       14.723379       1
       13916.060       228.10013       14.335538       1
       13938.544       230.11942       14.704863       1
       13961.029       236.81253       14.312535       1
       13983.513       238.89826       14.701431       1
       14005.997       247.17646       14.369129       1
       14028.482       252.81251       14.681903       1
       14050.966       239.66382       14.371695       1
       14073.451       246.12542       14.499276       1
       14095.935       237.04493       13.961180       1
       14118.419       232.13645       14.242130       1
       14140.904       145.54810       11.489346       1
       14163.388       223.24940       14.231747       1
       14185.872       198.30470       13.521136       1
       14208.357       208.55964       4447874.1       1
       14230.841       189.21852       13.428422       1
       14253.325       216.61279       14.007563       1
       14275.810       193.63247       13.329542       1
       14298.294       206.29821       13.765632       1
       14320.779       208.27891       13.402217       1
       14343.263       224.54094       13.927660       1
       14365.747       188.41930       13.104061       1
       14388.232       210.92100       13.763597       1
       14410.716       195.08762       13.101916       1
       14433.200       198.32554       13.608646       1
       14455.685       191.74776       13.120947       1
       14478.169       206.60730       13.651166       1
       14500.653       192.48802       13.181685       1
       14523.138       212.71553       13.717394       1
       14545.622       194.45936       13.165259       1
       14568.107       206.50292       13.614031       1
       14590.591       191.66345       13.078957       1
       14613.075       198.90135       13.542175       1
       14635.560       183.09238       12.944580       1
       14658.044       198.33474       13.608421       1
       14680.528       188.15653       13.084324       1
       14703.013       218.82558       13.807720       1
       14725.497       184.96748       13.034372       1
       14747.981       182.46480       13.410739       1
       14770.466       183.11717       13.022825       1
       14792.950       188.18713       13.505735       1
       14815.435       178.63230       12.891019       1
       14837.919       188.71328       13.462226       1
       14860.403       188.46109       13.039074       1
       14882.888       207.04064       13.546171       1
       14905.372       164.09752       12.739447       1
       14927.856       185.82014       13.198489       1
       14950.341       158.39649       12.606634       1
       14972.825       176.37597       13.125854       1
       14995.309       186.27730       12.887283       1
       15017.794       193.90916       13.127441       1
       15040.278       181.69961       12.750121       1
       15062.763       185.82909       13.433481       1
       15085.247       182.65951       12.700027       1
       15107.731       185.95995       13.458366       1
       15130.216       189.10854       12.826619       1
       15152.700       195.87851       13.211257       1
       15175.184       192.71747       12.781737       1
       15197.669       209.42988       13.264331       1
       15220.153       176.27878       12.593636       1
       15242.637       206.88122       13.202179       1
       15265.122       191.75582       12.691034       1
       15287.606       190.07685       13.111062       1
       15310.091       167.59271       12.466151       1
       15332.575       193.59226       13.021043       1
       15355.059       176.48620       12.631306       1
       15377.544       186.84600       13.086568       1
       15400.028       181.17587       12.677430       1
       15422.512       187.09319       13.065847       1
       15444.997       182.73020       12.721451       1
       15467.481       191.85395       13.132604       1
       15489.965       196.59786       12.791462       1
       15512.450       204.55429       13.274138       1
       15534.934       193.90308       12.862455       1
       15557.419       190.30707       13.150870       1
       15579.903       186.86890       12.765310       1
       15602.387       181.64926       13.084513       1
       15624.872       189.00882       12.805188       1
       15647.356       189.71939       13.099380       1
       15669.840       193.67604       12.752577       1
       15692.325       145.54666       11.225217       1
       15714.809       182.90477       12.602635       1
       15737.293       197.48234       13.109590       1
       15759.778       189.38316       12.611581       1
       15782.262       188.17429       12.954609       1
       15804.747       176.08824       13.327251       1
       15827.231       178.96717       12.878703       1
       15849.715       180.31516       13.338119       1
       15872.200       177.94305       12.879836       1
       15894.684       194.68661       12.773482       1
       15917.168       171.91346       13.819591       1
       15939.653       184.22359       12.710349       1
       15962.137       195.06148       13.089647       1
       15984.621       178.94770       13.193649       1
       16007.106       179.78571       12.917377       1
       16029.590       188.51876       12.912093       1
       16052.074       172.40998       12.903334       1
       16074.559       179.25236       12.650979       1
       16097.043       178.08032       12.981773       1
       16119.528       178.63436       12.675432       1
       16142.012       172.98947       4196711.1       1
       16164.496       141.86215       10.782068       1
       16186.981       171.90649       13.064378       1
       16209.465       174.12091       12.770108       1
       16231.949       175.79661       13.198462       1
       16254.434       177.00128       12.932007       1
       16276.918       172.28944       13.244743       1
       16299.402       186.21563       13.041198       1
       16321.887       175.96632       13.315618       1
       16344.371       183.43959       13.085914       1
       16366.856       183.25766       13.472898       1
       16389.340       175.22141       13.003139       1
       16411.824       179.74086       13.467514       1
       16434.309       171.40758       13.054146       1
       16456.793       176.37350       13.551560       1
       16479.277       162.07142       13.155452       1
       16501.762       174.00154       13.840685       1
       16524.246       155.07218       13.661412       1
       16546.730       144.92539       14.268275       1
       16569.215       183.78426       14.729703       1
       16591.699       165.83531       15.733158       1
       16614.184       98.713482       12.489798       1
       16636.668       155.28633       17.692539       1
       16659.152       162.56108       18.603750       1
       16681.637       189.40821       21.347878       1
       16704.121       188.83691       22.415229       1
       16726.605       148.83246       25.823524       1
       16749.090       161.06666       28.265591       1
       16771.574       173.78301       33.015650       0
       16794.058       241.31906       37.053095       0
       16816.543       203.33957       42.323749       0
       16839.027       254.64429       47.034059       0
       16861.512       112.89869       52.031268       0
       16883.996       157.58717       57.112720       0
       16906.480       184.32995       65.556357       0
       16928.965       172.29697       70.622267       0
       16951.449       105.03784       79.886137       0
       16973.933       198.75052       87.328487       0
       16996.418       171.23009       99.327581       0
       17018.902       211.41183       108.26475       0
       17041.386       187.40081       121.72570       0
       17063.871       277.01556       132.40978       0
       17086.355       281.93824       151.09636       0
       17108.840       78.002502       163.90392       0
       17131.324       238.65886       192.26901       0
       17153.808       161.18302       215.30557       0
