#WAVELENGTH FLUX ERROR MASK
       7515.7512      -859.33761       309.40564       0
       7528.4460      -5441.2585       335.21757       0
       7541.1408       4212.3866       260.60943       0
       7553.8356      -8821.8122       268.92191       0
       7566.5304       719.58770       193.56258       0
       7579.2252      -1812.1020       212.60527       0
       7591.9199      -2567.0167       153.25850       0
       7604.6147      -1440.3497       173.83497       0
       7617.3095      -1509.4697       128.04076       0
       7630.0043       325.98932       148.34500       0
       7642.6991       69.173535       110.30437       0
       7655.3939       401.61526       126.41939       0
       7668.0886       329.89294       93.075317       0
       7680.7834      -279.29679       104.99461       0
       7693.4782      -1.7962480       76.853569       0
       7706.1730      -2.1527111       87.520301       0
       7718.8678       173.11426       64.951847       0
       7731.5626       108.09989       74.965739       0
       7744.2574       180.30664       57.828896       0
       7756.9521      -164.12009       67.724407       0
       7769.6469       100.03749       53.086996       0
       7782.3417       126.67683       62.464635       0
       7795.0365       70.453183       48.342160       0
       7807.7313       244.22597       56.549216       0
       7820.4261       137.89521       43.475023       0
       7833.1209       329.66827       51.197628       0
       7845.8156       176.28739       38.921571       0
       7858.5104       78.494946       45.698952       0
       7871.2052       47.553148       35.115730       0
       7883.9000       41.138067       41.589895       0
       7896.5948       102.28965       32.393904       0
       7909.2896       131.52384       38.962245       0
       7921.9843       146.68118       37.523045       0
       7934.6791       3.3874126       36.869851       0
       7947.3739       30.186842       29.073432       0
       7960.0687       189.54798       35.483205       0
       7972.7635       3.7959443       27.664570       0
       7985.4583       28.870906       33.624924       0
       7998.1531       44.707394       26.605107       0
       8010.8478       116.97385       32.784691       0
       8023.5426       124.29974       25.959267       0
       8036.2374       15.353461       31.643948       0
       8048.9322       118.87715       25.384680       0
       8061.6270       136.06306       31.212215       0
       8074.3218       128.31075       30.275500       0
       8087.0166       102.39855       30.567112       0
       8099.7113       56.529658       24.240886       0
       8112.4061       123.37476       30.047916       0
       8125.1009       74.044462       23.864826       0
       8137.7957       59.282737       29.381137       0
       8150.4905       104.62030       23.265805       1
       8163.1853       117.07829       29.088105       1
       8175.8801       65.380471       23.081763       1
       8188.5748       26.277647       28.167213       1
       8201.2696       15.155643       22.514214       1
       8213.9644       125.56398       27.945320       1
       8226.6592       117.28316       22.243375       1
       8239.3540       35.754946       27.000649       1
       8252.0488       93.837187       21.649672       1
       8264.7435       33.456471       26.194008       1
       8277.4383       46.238663       20.974045       1
       8290.1331       103.16411       25.852883       1
       8302.8279       63.624123       20.501513       1
       8315.5227     -0.77724551       24.899310       1
       8328.2175       25.437359       20.014285       1
       8340.9123       28.540694       24.515487       1
       8353.6070       100.13874       19.815915       1
       8366.3018       84.355009       24.290429       1
       8378.9966       56.099269       20.582938       1
       8391.6914       28.280729       23.770919       1
       8404.3862       76.737149       19.137633       1
       8417.0810       8.8016222       23.495730       1
       8429.7758       23.566208       18.707647       1
       8442.4705       74.843890       23.242450       1
       8455.1653       39.208182       18.496189       1
       8467.8601       124.73442       22.933760       1
       8480.5549       54.363127       18.252252       1
       8493.2497       46.252836       22.467085       1
       8505.9445       59.306201       18.046474       1
       8518.6393       40.447944       22.133630       1
       8531.3340       56.323921       17.839340       1
       8544.0288       52.271951       22.097225       1
       8556.7236       37.552500       17.689163       1
       8569.4184       81.778853       22.067956       1
       8582.1132       27.633553       17.572997       1
       8594.8080       81.889388       21.948666       1
       8607.5027       94.879938       17.670158       1
       8620.1975       73.464083       21.821445       1
       8632.8923       32.987207       17.434905       1
       8645.5871       54.637021       21.636055       1
       8658.2819       52.435041       17.358183       1
       8670.9767       27.312206       21.421718       1
       8683.6715       63.706914       17.200113       1
       8696.3662       53.170902       21.208117       1
       8709.0610       18.990835       16.810645       1
       8721.7558       52.234715       20.705490       1
       8734.4506       19.342148       16.442468       1
       8747.1454       92.194379       20.583294       1
       8759.8402       35.114507       16.241760       1
       8772.5350       55.955354       20.037229       1
       8785.2297       32.587179       16.051418       1
       8797.9245       25.027917       19.776229       1
       8810.6193       51.514834       15.904791       1
       8823.3141       55.525900       19.750479       1
       8836.0089       65.802830       15.840515       1
       8848.7037       59.240153       19.508683       1
       8861.3985       63.321933       15.682096       1
       8874.0932       17.589706       19.189933       1
       8886.7880       48.159715       15.480743       1
       8899.4828       78.892084       19.167784       1
       8912.1776       71.307887       15.417371       1
       8924.8724       72.210461       19.155305       1
       8937.5672       50.721079       15.244449       1
       8950.2619       77.875070       18.829251       1
       8962.9567       60.910801       15.107697       1
       8975.6515       60.884425       18.520564       1
       8988.3463       37.688322       14.876574       1
       9001.0411       48.131594       18.317722       1
       9013.7359       79.610860       14.899066       1
       9026.4307       44.785955       18.233471       1
       9039.1254       28.861142       14.562994       1
       9051.8202       59.623246       18.318574       1
       9064.5150       13.947647       14.555237       1
       9077.2098       71.584244       18.335149       1
       9089.9046       16.824067       14.452280       1
       9102.5994       19.823321       17.895313       1
       9115.2942       59.847028       14.430917       1
       9127.9889       44.710320       17.818101       1
       9140.6837       71.709273       14.321519       1
       9153.3785       12.205604       17.492067       1
       9166.0733       58.654449       14.166711       1
       9178.7681       54.503127       17.520376       1
       9191.4629       38.114346       13.999317       1
       9204.1577       68.785874       17.447302       1
       9216.8524       32.950107       13.850471       1
       9229.5472       40.880483       17.237267       1
       9242.2420       58.107834       13.834778       1
       9254.9368       87.916898       17.284874       1
       9267.6316       29.232967       13.635709       1
       9280.3264       48.955274       17.017698       1
       9293.0211       43.908715       13.563011       1
       9305.7159       53.615600       16.946519       1
       9318.4107       22.998997       15.827990       1
       9331.1055       39.434441       16.744549       1
       9343.8003       65.914642       13.517661       1
       9356.4951       51.443397       16.594106       1
       9369.1899       41.842145       13.355223       1
       9381.8846       40.097941       16.409271       1
       9394.5794       35.328686       13.231084       1
       9407.2742       41.751700       16.353263       1
       9419.9690       40.532394       13.192878       1
       9432.6638       32.456241       16.189049       1
       9445.3586       41.996702       13.077766       1
       9458.0534       29.878804       16.081664       1
       9470.7481       31.622372       12.919054       1
       9483.4429      -24.061458       14.141030       1
       9496.1377       23.914576       12.832263       1
       9508.8325       44.166061       15.926564       1
       9521.5273       42.351174       12.852768       1
       9534.2221       52.005214       15.798272       1
       9546.9168       45.812316       12.777061       1
       9559.6116       32.190746       15.696669       1
       9572.3064       38.178797       12.685266       1
       9585.0012       54.185573       15.760422       1
       9597.6960       44.433819       12.708731       1
       9610.3908       43.652641       15.654537       1
       9623.0856       42.320787       12.601555       1
       9635.7803       43.740630       15.613040       1
       9648.4751       43.734735       12.561016       1
       9661.1699       50.306752       15.533675       1
       9673.8647       34.041574       12.468764       1
       9686.5595       26.788681       15.413810       1
       9699.2543       26.449288       12.319793       1
       9711.9491       28.005398       15.326422       1
       9724.6438       28.376046       12.342437       1
       9737.3386       47.638205       15.426045       1
       9750.0334       5.8956891       12.208812       1
       9762.7282       47.948016       15.306808       1
       9775.4230       36.661711       12.255245       1
       9788.1178       17.883797       15.077279       1
       9800.8126       26.075181       12.124282       1
       9813.5073       38.130807       14.982695       1
       9826.2021       33.845515       12.037224       1
       9838.8969       40.837392       15.066384       1
       9851.5917       36.391706       12.040580       1
       9864.2865       56.007159       15.050880       1
       9876.9813       23.942464       11.915538       1
       9889.6760       28.200704       14.820478       1
       9902.3708       24.401079       12.610830       1
       9915.0656       10.774643       14.712138       1
       9927.7604       31.536908       11.921095       1
       9940.4552       30.851432       14.680086       1
       9953.1500       12.661756       14.361804       1
       9965.8448       38.710793       14.719594       1
       9978.5395       33.671404       11.859230       1
       9991.2343       34.665499       14.645151       1
       10003.929       53.328665       11.836692       1
       10016.624       52.203640       14.572777       1
       10029.319       54.194434       11.742305       1
       10042.013       52.179468       14.479977       1
       10054.708       39.345283       11.599233       1
       10067.403       47.515381       14.335606       1
       10080.098       40.873952       11.552740       1
       10092.793       54.099631       14.326105       1
       10105.487       58.072069       11.620309       1
       10118.182       45.328604       14.288710       1
       10130.877       43.214986       12.112287       1
       10143.572       34.989609       12.775867       1
       10156.267       43.437684       11.492403       1
       10168.961       55.215254       14.337546       1
       10181.656       48.624029       11.525085       1
       10194.351       46.380503       14.132330       1
       10207.046       43.126357       13.315296       1
       10219.740       50.726767       14.354076       1
       10232.435       50.555784       11.430933       1
       10245.130       29.000428       14.099489       1
       10257.825       54.815802       11.445518       1
       10270.520       37.726519       14.115290       1
       10283.214       46.959437       11.362600       1
       10295.909       41.301826       14.012671       1
       10308.604       53.497615       11.342544       1
       10321.299       38.731367       14.006236       1
       10333.994       55.184453       11.285849       1
       10346.688       54.815486       14.041761       1
       10359.383       57.740007       11.258090       1
       10372.078       51.985980       13.930571       1
       10384.773       56.298670       11.722957       1
       10397.467       47.239306       13.920013       1
       10410.162       52.283918       11.178243       1
       10422.857       62.893197       13.893059       1
       10435.552       54.749985       11.172417       1
       10448.247       58.452934       13.827849       1
       10460.941       54.471822       11.131695       1
       10473.636       58.387944       13.816628       1
       10486.331       62.921267       11.158499       1
       10499.026       34.620368       13.655152       1
       10511.721       57.936622       11.106425       1
       10524.415       64.474909       13.734932       1
       10537.110       69.226454       11.175908       1
       10549.805       58.408358       13.755463       1
       10562.500       45.170701       11.086165       1
       10575.194       38.254852       13.644108       1
       10587.889       45.294462       11.063435       1
       10600.584       57.315134       13.808469       1
       10613.279       47.913296       11.080566       1
       10625.974       38.446961       5589646.7       1
       10638.668       48.228937       11.042754       1
       10651.363       55.028791       13.743147       1
       10664.058       45.546524       11.011595       1
       10676.753       60.983184       13.724103       1
       10689.448       73.893388       11.121561       1
       10702.142       37.465033       13.498220       1
       10714.837       51.317364       10.932575       1
       10727.532       43.025944       13.467818       1
       10740.227       63.717398       10.973363       1
       10752.921       49.515732       13.509385       1
       10765.616       35.134813       10.835623       1
       10778.311       67.114368       13.982324       1
       10791.006       51.871472       10.903984       1
       10803.701       50.067617       13.434744       1
       10816.395       71.273470       10.988661       1
       10829.090       87.114597       13.656994       1
       10841.785       69.507981       10.965877       1
       10854.480       71.822664       13.650530       1
       10867.175       69.015745       11.537880       1
       10879.869       82.054835       13.679574       1
       10892.564       75.957326       11.571495       1
       10905.259       68.981962       13.554153       1
       10917.954       67.569001       10.895379       1
       10930.648       104.73967       13.706222       1
       10943.343       64.409150       10.863129       1
       10956.038       80.218458       13.503550       1
       10968.733       62.583798       10.825524       1
       10981.428       57.341973       13.280576       1
       10994.122       76.554712       10.872852       1
       11006.817       53.633922       13.237669       1
       11019.512       72.659903       10.798919       1
       11032.207       66.163451       13.424257       1
       11044.901       68.710284       10.849998       1
       11057.596       57.900310       13.258705       1
       11070.291       54.464464       10.736072       1
       11082.986       64.673829       13.355282       1
       11095.681       71.496889       10.767089       1
       11108.375       57.596173       13.297878       1
       11121.070       61.307000       10.714674       1
       11133.765       67.049473       13.288153       1
       11146.460       66.938561       10.735772       1
       11159.155       84.077866       13.342760       1
       11171.849       62.301035       10.720729       1
       11184.544       77.021389       13.291488       1
       11197.239       51.636426       10.627602       1
       11209.934       61.064125       13.191931       0
       11222.628       75.783242       10.752236       0
       11235.323       66.131842       13.177492       0
       11248.018       60.203892       10.698816       0
       11260.713       43.483181       11.555020       0
       11273.408       63.997977       10.712537       0
       11286.102       51.389269       13.264890       0
       11298.797       60.740602       10.695069       0
       11311.492       73.784518       13.345325       0
       11324.187       59.994119       10.705776       0
       11336.882       59.047994       13.293486       0
       11349.576       68.277409       10.693252       0
       11362.271       36.998008       13.174136       0
       11374.966       59.044439       10.718364       0
       11387.661       62.895251       13.303272       0
       11400.355       68.114092       10.747737       0
       11413.050       60.121012       13.267179       0
       11425.745       54.472179       10.730495       0
       11438.440       57.210053       13.306270       0
       11451.135       49.460903       10.752488       0
       11463.829       53.125377       13.543165       0
       11476.524       47.754133       11.089034       0
       11489.219       31.097368       15.722381       0
       11501.914       52.571350       11.709913       0
       11514.609       25.840898       15.043148       0
       11527.303       55.523594       12.829769       0
       11539.998       45.992229       16.794731       0
       11552.693       63.886150       14.348417       0
       11565.388       42.400404       18.841259       0
       11578.082       26.456559       16.192480       0
       11590.777       63.629650       21.428151       0
       11603.472       25.987279       18.119562       0
       11616.167       62.789920       27.699705       0
       11628.862       8.2305463       20.089947       0
       11641.556      -68.177249       30.112489       0
       11654.251       9.1982378       22.251037       0
       11666.946      -57.342699       29.215945       0
       11679.641       27.498899       25.491027       0
       11692.336      -44.899025       34.114596       0
       11705.030       15.837406       30.344137       0
       11717.725      -100.80877       41.323603       0
       11730.420      -49.447407       37.302791       0
       11743.115       87.865938       51.331138       0
       11755.809      -375.09306       53.506019       0
       11768.504      -177.89640       61.990047       0
       11781.199      0.11515126       65.754984       0
       11793.894      -308.66408       74.917867       0
       11806.589      -340.77189       71.349960       0
       11819.283      -667.95315       94.382014       0
       11831.978       453.60087       87.819265       0
       11844.673      -417.80996       122.48260       0
       11857.368       298.95958       113.57644       0
       11870.063       1559.4829       160.64204       0
       11882.757       326.74392       141.48721       0
       11895.452      -1059.1291       181.34379       0
       11908.147      -1297.0486       147.42317       0
       11920.842      -1694.3933       181.59922       0
       11933.536       1654.1459       145.49978       0
       11946.231      -4340.8993       176.36037       0
       11958.926      -2156.1406       144.23484       0
       11971.621      -2658.2271       184.35858       0
       11984.316       490.56526       158.37387       0
       11997.010      -2557.6236       211.00013       0
       12009.705       159.29386       184.49436       0
       12022.400       784.99009       250.32027       0
       12035.095      -7517.2763       249.34220       0
       12047.790       6528.2434       289.37255       0
       12060.484      -2614.0378       246.58668       0
       12073.179       448.21673       326.49304       0
