#WAVELENGTH FLUX ERROR MASK
       10208.958      -520.06165       163.42692       0
       10232.363      -997.20682       163.87204       0
       10255.767      -608.94892       143.12312       0
       10279.172      -1366.4205       139.79421       0
       10302.577      -164.97331       130.31801       0
       10325.982       355.17958       123.82113       0
       10349.386       908.30542       117.61680       0
       10372.791      -149.60130       111.92987       0
       10396.196      -173.82197       105.99065       0
       10419.600       256.78552       102.10147       0
       10443.005       131.70918       94.881690       0
       10466.410      -241.57335       87.908826       0
       10489.814       272.49380       76.411151       0
       10513.219      -101.81731       74.196247       0
       10536.624      -111.91368       67.568100       0
       10560.028      -49.865008       63.504945       0
       10583.433      -124.31016       58.911893       0
       10606.838      -21.355430       56.281176       0
       10630.243       147.36994       53.386405       0
       10653.647       149.06279       51.081763       0
       10677.052       54.361309       47.413182       0
       10700.457       62.572423       44.244563       0
       10723.861       37.877523       36.199501       0
       10747.266       41.395687       35.040276       0
       10770.671       50.828688       33.511564       0
       10794.075       92.395715       31.053888       0
       10817.480       41.731910       28.401646       0
       10840.885       16.437496       26.466844       0
       10864.290       20.812548       25.317684       0
       10887.694       46.258461       24.062251       0
       10911.099       14.995409       23.120942       0
       10934.504       51.225940       22.395854       0
       10957.908       71.818251       21.641589       0
       10981.313       72.242088       21.372935       0
       11004.718       55.431770       20.077581       1
       11028.122       72.263740       19.596008       1
       11051.527       48.876549       18.662778       1
       11074.932       50.999505       18.333156       1
       11098.336       68.060536       17.871612       1
       11121.741       65.151526       17.727670       1
       11145.146       29.814400       17.297753       1
       11168.551       46.946632       17.066980       1
       11191.955       23.505442       15.476953       1
       11215.360       63.332477       16.999913       1
       11238.765       79.805982       16.854471       1
       11262.169       68.013978       16.818879       1
       11285.574       47.755348       15.140773       1
       11308.979       72.817879       16.749091       1
       11332.383       55.022250       16.593030       1
       11355.788       42.019906       16.275165       1
       11379.193       61.146362       15.184572       1
       11402.598       58.337909       16.263609       1
       11426.002       52.942194       16.026704       1
       11449.407       49.776865       14.867773       1
       11472.812       40.926689       15.888711       1
       11496.216       48.550911       15.975022       1
       11519.621       49.601223       15.844692       1
       11543.026       57.317963       16.040071       1
       11566.430       74.238099       15.914250       1
       11589.835       62.751628       15.956625       1
       11613.240       50.265187       15.894058       1
       11636.644       67.502671       15.935272       1
       11660.049       70.610075       15.740643       1
       11683.454       50.898647       15.626143       1
       11706.859       55.702775       15.415838       1
       11730.263       54.882589       15.433112       1
       11753.668       61.056808       15.269861       1
       11777.073       56.054181       15.343212       1
       11800.477       56.214916       15.114107       1
       11823.882       57.944291       15.180233       1
       11847.287       60.787788       15.037604       1
       11870.691       55.103266       14.965525       1
       11894.096       56.274536       14.795370       1
       11917.501       52.345182       13.507893       1
       11940.905       55.355794       14.746714       1
       11964.310       61.340054       14.851881       1
       11987.715       58.228165       14.897456       1
       12011.120       60.690538       14.744127       1
       12034.524       61.486588       14.816436       1
       12057.929       55.635307       14.592271       1
       12081.334       60.324689       14.497650       1
       12104.738       60.470207       14.550934       1
       12128.143       47.635315       13.388322       1
       12151.548       66.084521       14.533661       1
       12174.952       60.284278       14.323418       1
       12198.357       57.460918       14.357819       1
       12221.762       62.165390       14.230108       1
       12245.167       59.983820       14.312872       1
       12268.571       56.028352       14.112656       1
       12291.976       80.792232       14.482512       1
       12315.381       50.388922       14.006282       1
       12338.785       65.944628       14.223007       1
       12362.190       72.064096       14.132628       1
       12385.595       58.813355       14.106311       1
       12408.999       62.541856       14.033777       1
       12432.404       44.789342       13.921429       1
       12455.809       55.179999       13.906923       1
       12479.213       51.979385       13.963823       1
       12502.618       53.587792       14.002080       1
       12526.023       65.392049       13.999625       1
       12549.428       67.269871       13.927155       1
       12572.832       62.991256       13.954819       1
       12596.237       61.468920       13.823805       1
       12619.642       59.883314       13.882094       1
       12643.046       59.071646       13.816744       1
       12666.451       55.301837       13.826982       1
       12689.856       59.875752       14.170278       1
       12713.260       48.117214       13.686027       1
       12736.665       58.398172       14.280475       1
       12760.070       52.927978       13.633079       1
       12783.475       58.345369       13.510962       1
       12806.879       65.248212       13.706652       1
       12830.284       56.042524       13.473677       1
       12853.689       56.400454       13.560684       1
       12877.093       54.929996       13.404571       1
       12900.498       63.460821       13.521254       1
       12923.903       56.417537       13.574504       1
       12947.307       54.455246       13.466337       1
       12970.712       64.238802       13.364238       1
       12994.117       63.443116       13.430148       1
       13017.521       46.106660       13.004457       1
       13040.926       61.379402       13.330521       1
       13064.331       52.187438       13.325542       1
       13087.736       63.115550       13.260029       1
       13111.140       56.150761       13.100883       1
       13134.545       55.459587       13.226226       1
       13157.950       59.236537       13.074856       1
       13181.354       57.836673       13.143125       1
       13204.759       57.796467       12.926614       1
       13228.164       65.469627       13.126633       1
       13251.568       58.651310       12.883556       1
       13274.973       79.542190       13.260414       1
       13298.378       74.258568       13.099951       1
       13321.783       72.185667       13.139927       1
       13345.187       63.859088       12.924080       1
       13368.592       74.009017       13.045191       1
       13391.997       77.545815       12.997890       1
       13415.401       93.361786       13.256211       1
       13438.806       83.092024       13.013052       1
       13462.211       82.009867       13.110792       1
       13485.615       73.303765       12.870882       1
       13509.020       79.658738       13.041085       1
       13532.425       65.490700       12.696632       1
       13555.829       57.520491       12.713192       1
       13579.234       52.731837       12.845759       1
       13602.639       61.200825       12.815785       1
       13626.044       63.210734       12.911877       1
       13649.448       53.450383       12.749033       1
       13672.853       52.941481       12.617969       1
       13696.258       59.593076       12.789899       1
       13719.662       48.368411       13.276719       1
       13743.067       52.226886       12.762439       1
       13766.472       46.858390       13.184819       1
       13789.876       60.754588       12.814593       1
       13813.281       60.248741       12.691246       1
       13836.686       46.584384       11.753227       1
       13860.091       59.061209       12.673202       1
       13883.495       55.777296       12.732770       1
       13906.900       42.988352       11.311384       1
       13930.305       33.080052       3607362.1       1
       13953.709       50.482745       12.559144       1
       13977.114       58.565096       12.680818       1
       14000.519       51.654257       12.466442       1
       14023.923       61.873871       12.647797       1
       14047.328       57.229461       12.500365       1
       14070.733       58.489034       12.506386       1
       14094.137       57.707679       12.619738       1
       14117.542       55.592294       12.509404       1
       14140.947       58.034890       12.420926       1
       14164.352       59.149471       12.523897       1
       14187.756       58.355692       12.359419       1
       14211.161       49.395264       11.496633       1
       14234.566       57.038821       12.469644       1
       14257.970       47.338561       11.308133       1
       14281.375       56.866642       12.471757       1
       14304.780       60.392033       13.291799       1
       14328.184       70.691985       12.410880       1
       14351.589       62.037190       12.533156       1
       14374.994       44.782783       11.358226       1
       14398.399       49.811049       12.401328       1
       14421.803       63.020619       12.290928       1
       14445.208       61.680785       12.366430       1
       14468.613       68.735480       12.358293       1
       14492.017       62.371590       12.353871       1
       14515.422       54.494160       12.363608       1
       14538.827       44.868146       11.329605       1
       14562.231       54.236056       12.224779       1
       14585.636       58.347694       12.331299       1
       14609.041       58.787667       12.262332       1
       14632.445       53.468344       12.318859       1
       14655.850       62.860970       12.267875       1
       14679.255       57.596986       12.311063       1
       14702.660       58.482862       12.242933       1
       14726.064       54.492366       12.277418       1
       14749.469       62.193681       12.282977       1
       14772.874       47.155373       3484263.7       1
       14796.278       74.304018       12.444194       1
       14819.683       68.919018       12.432304       1
       14843.088       57.103126       12.241033       1
       14866.492       56.004023       12.310547       1
       14889.897       60.453301       12.459014       1
       14913.302       53.175050       12.187447       1
       14936.707       61.944413       12.202938       1
       14960.111       52.542806       12.194000       1
       14983.516       54.383463       12.032997       1
       15006.921       55.497620       12.133033       1
       15030.325       60.736000       12.106998       1
       15053.730       57.296989       12.130869       1
       15077.135       60.929018       12.286244       1
       15100.539       63.665482       12.290503       1
       15123.944       57.622290       12.102034       1
       15147.349       63.956105       12.195018       1
       15170.753       49.442855       11.972706       1
       15194.158       59.785354       12.133484       1
       15217.563       57.499646       12.068682       1
       15240.968       56.943787       12.056601       1
       15264.372       64.198742       12.126141       1
       15287.777       62.007493       12.152745       1
       15311.182       69.642781       12.108461       1
       15334.586       55.718920       12.082157       1
       15357.991       56.825497       12.050910       1
       15381.396       50.322805       11.219964       1
       15404.800       58.160783       12.068456       1
       15428.205       61.626888       12.211747       1
       15451.610       60.661492       12.099272       1
       15475.015       56.579838       12.161431       1
       15498.419       57.211770       12.259074       1
       15521.824       64.613106       12.250980       1
       15545.229       66.659174       12.180877       1
       15568.633       67.613141       12.304438       1
       15592.038       62.047292       12.214445       1
       15615.443       61.499838       12.253174       1
       15638.847       50.172016       11.487576       1
       15662.252       60.893616       12.250155       1
       15685.657       60.207015       12.126678       1
       15709.061       63.176935       12.254711       1
       15732.466       57.141586       12.061577       1
       15755.871       55.286061       12.185945       1
       15779.276       65.732646       12.145972       1
       15802.680       62.579333       12.230740       1
       15826.085       63.782255       12.149593       1
       15849.490       63.771890       3403079.5       1
       15872.894       55.289918       12.108255       1
       15896.299       52.712529       12.107430       1
       15919.704       56.868802       12.109142       1
       15943.108       65.905947       12.287731       1
       15966.513       62.683800       12.164382       1
       15989.918       58.344284       12.281821       1
       16013.323       58.905387       12.154062       1
       16036.727       46.555456       11.253020       1
       16060.132       62.525046       12.366583       1
       16083.537       63.582628       12.304589       1
       16106.941       64.667930       12.195219       1
       16130.346       58.767793       12.327626       1
       16153.751       65.359065       12.211432       1
       16177.155       56.117769       12.366947       1
       16200.560       66.114662       12.263719       1
       16223.965       51.130245       12.356226       1
       16247.369       71.307783       12.531565       1
       16270.774       67.822332       12.582680       1
       16294.179       66.672537       12.442768       1
       16317.584       61.099039       12.474000       1
       16340.988       56.403006       12.374718       1
       16364.393       49.578017       11.570465       1
       16387.798       62.754516       12.451869       1
       16411.202       66.101314       12.646728       1
       16434.607       58.608637       12.409886       1
       16458.012       64.194346       12.631696       1
       16481.416       68.682257       12.554333       1
       16504.821       62.397610       12.755893       1
       16528.226       56.511887       12.718941       1
       16551.631       62.660746       13.043056       1
       16575.035       63.560703       13.165128       1
       16598.440       55.123999       13.492827       1
       16621.845       51.957042       13.960780       1
       16645.249       61.261629       14.462144       1
       16668.654       66.779279       14.922549       1
       16692.059       61.527637       15.753434       1
       16715.463       60.136056       17.007289       1
       16738.868       75.740522       17.620851       1
       16762.273       66.919484       18.773315       0
       16785.677       77.994232       5688465.4       0
       16809.082       110.04446       21.298842       0
       16832.487       63.806065       20.483422       0
       16855.892       61.949145       24.215860       0
       16879.296       72.302118       7329796.8       0
       16902.701       62.706380       26.646243       0
       16926.106       103.35344       28.387195       0
       16949.510       86.584531       29.892179       0
       16972.915       102.73729       31.965120       0
       16996.320       41.756824       34.169283       0
       17019.724       95.181419       35.655612       0
       17043.129       94.716364       37.407850       0
       17066.534       177.34562       39.753757       0
       17089.939       62.107689       40.898094       0
       17113.343       206.83702       44.431897       0
       17136.748       154.44669       46.997507       0
       17160.153       136.11415       50.511597       0
       17183.557       89.676820       54.183814       0
       17206.962       25.612891       58.159572       0
       17230.367       501.43603       62.699117       0
       17253.771       64.699283       65.953680       0
       17277.176       68.836016       74.431504       0
       17300.581       11.143283       73.648806       0
       17323.985       379.61317       77.008850       0
       17347.390       67.889325       23552453.       0
       17370.795       233.11859       85.742616       0
       17394.200       440.30137       91.597574       0
       17417.604       615.87567       95.743468       0
       17441.009      -170.35396       99.752063       0
       17464.414       521.01214       105.48421       0
       17487.818       967.66008       114.63243       0
