#WAVELENGTH FLUX ERROR MASK
       7515.7512       108.88164       293.45571       0
       7528.4460      -9314.0220       329.34862       0
       7541.1408       1119.5513       245.45071       0
       7553.8356       8495.4531       271.01034       0
       7566.5304      -6789.5721       190.93314       0
       7579.2252      -2219.6531       210.53271       0
       7591.9199       646.96991       154.07327       0
       7604.6147       910.26998       173.25387       0
       7617.3095      -715.16216       127.73889       0
       7630.0043       3972.6762       148.81246       0
       7642.6991       231.57154       109.86440       0
       7655.3939       1346.1675       126.18660       0
       7668.0886      -709.14633       92.380497       0
       7680.7834      -973.10623       103.89290       0
       7693.4782      -92.155417       76.484563       0
       7706.1730      -357.73063       86.200137       0
       7718.8678       181.11999       65.169972       0
       7731.5626      -115.37962       75.012112       0
       7744.2574      -44.116043       57.716403       0
       7756.9521      -61.396223       68.280436       0
       7769.6469      -367.89986       58.805797       0
       7782.3417       569.62003       63.619555       0
       7795.0365      -15.374072       48.392972       0
       7807.7313      -56.457576       56.916906       0
       7820.4261       329.99422       43.754110       0
       7833.1209       21.505169       50.903649       0
       7845.8156       21.122084       38.897904       0
       7858.5104       321.97948       46.071714       0
       7871.2052       81.716215       40.168528       0
       7883.9000       246.93405       41.952678       0
       7896.5948       134.04789       32.484042       0
       7909.2896       63.931009       38.846023       0
       7921.9843       86.863978       30.588351       0
       7934.6791       91.638910       37.044663       0
       7947.3739       166.80871       29.184554       0
       7960.0687       95.608043       35.145710       0
       7972.7635       153.49473       27.906340       0
       7985.4583       113.98603       33.802946       0
       7998.1531       127.38884       26.776754       0
       8010.8478       39.842235       32.622293       0
       8023.5426       81.527164       25.873013       0
       8036.2374       147.80739       31.857543       0
       8048.9322       124.17447       25.374007       0
       8061.6270       35.242784       30.895629       0
       8074.3218       92.408515       24.832950       0
       8087.0166       22.369215       30.444266       0
       8099.7113       70.518003       24.455443       0
       8112.4061       69.889578       29.887185       0
       8125.1009       57.665485       23.789274       0
       8137.7957       75.699885       29.227560       0
       8150.4905       54.962656       23.275676       1
       8163.1853       100.61491       28.905013       1
       8175.8801       96.644090       23.241125       1
       8188.5748       135.13855       28.395303       1
       8201.2696       39.448654       22.625881       1
       8213.9644       59.775674       27.645524       1
       8226.6592       4.6001047       21.932489       1
       8239.3540       132.99872       27.130998       1
       8252.0488       65.678349       21.620497       1
       8264.7435       70.066435       26.243715       1
       8277.4383       44.339091       20.972243       1
       8290.1331       77.058905       25.708361       1
       8302.8279       51.485670       20.476171       1
       8315.5227      -11.780414       24.887762       1
       8328.2175       133.03971       20.267781       1
       8340.9123       65.925538       18.151022       1
       8353.6070       169.89185       20.084610       1
       8366.3018       97.838443       24.433880       1
       8378.9966       104.22963       19.617868       1
       8391.6914       128.35594       24.163976       1
       8404.3862       106.06051       26.907260       1
       8417.0810       200.23597       24.040248       1
       8429.7758       65.337984       18.946282       1
       8442.4705       129.89202       23.595880       1
       8455.1653       40.080642       18.477197       1
       8467.8601       76.831763       22.873879       1
       8480.5549       30.904562       18.241010       1
       8493.2497       56.377881       22.540540       1
       8505.9445       90.847828       18.172365       1
       8518.6393       70.694805       22.348026       1
       8531.3340       141.75304       18.153401       1
       8544.0288       50.970596       22.018761       1
       8556.7236       90.259413       17.739868       1
       8569.4184       49.035096       21.848137       1
       8582.1132       105.26377       17.618439       1
       8594.8080       101.81788       21.878077       1
       8607.5027       147.69682       17.782318       1
       8620.1975      -2.7963641       21.437472       1
       8632.8923       102.64745       17.654124       1
       8645.5871       41.846049       21.620272       1
       8658.2819       48.684887       17.361523       1
       8670.9767       155.49345       21.801983       1
       8683.6715       87.913691       17.305664       1
       8696.3662       121.12683       21.388305       1
       8709.0610       53.286813       16.955001       1
       8721.7558       143.07398       21.048839       1
       8734.4506       108.77633       16.774635       1
       8747.1454       90.042845       20.603210       1
       8759.8402       41.121548       16.277939       1
       8772.5350       99.555096       20.181035       1
       8785.2297       86.392011       16.214607       1
       8797.9245       31.969982       19.747378       1
       8810.6193       74.286283       16.003071       1
       8823.3141       42.918809       19.659462       1
       8836.0089       92.026980       15.896545       1
       8848.7037       46.191505       19.458900       1
       8861.3985       46.187305       15.628557       1
       8874.0932       63.175070       19.342312       1
       8886.7880       63.218715       15.482502       1
       8899.4828       64.771505       19.024080       1
       8912.1776       105.50703       15.510386       1
       8924.8724       46.437601       18.897653       1
       8937.5672       75.830856       15.269311       1
       8950.2619       86.116182       18.830918       1
       8962.9567       84.669671       15.202424       1
       8975.6515       86.698084       18.704294       1
       8988.3463       73.281301       14.902862       1
       9001.0411       52.866923       18.344476       1
       9013.7359       91.872378       14.876573       1
       9026.4307       90.494039       18.236232       1
       9039.1254       103.81550       14.821198       1
       9051.8202       103.21154       18.311112       1
       9064.5150       74.131484       14.712449       1
       9077.2098       95.266763       18.244181       1
       9089.9046       74.545229       14.637146       1
       9102.5994       67.013190       18.043144       1
       9115.2942       56.176144       14.400937       1
       9127.9889       84.661791       17.941541       1
       9140.6837       53.376041       14.346557       1
       9153.3785       80.710434       17.654261       1
       9166.0733       61.319566       14.187958       1
       9178.7681       54.737595       17.462207       1
       9191.4629       36.484324       13.936707       1
       9204.1577       94.695238       17.480650       1
       9216.8524       117.81256       14.064558       1
       9229.5472       125.05983       17.331239       1
       9242.2420       66.353138       13.802666       1
       9254.9368       70.285760       17.026823       1
       9267.6316       65.944098       14.275740       1
       9280.3264       78.883601       17.010277       1
       9293.0211       101.51588       13.736959       1
       9305.7159       51.453778       16.835291       1
       9318.4107       55.554887       13.434408       1
       9331.1055       49.503972       16.657153       1
       9343.8003       62.763781       13.415537       1
       9356.4951       61.191772       16.660225       1
       9369.1899       61.333994       13.452776       1
       9381.8846       75.671601       16.537156       1
       9394.5794       52.567278       13.358848       1
       9407.2742       65.126993       16.478354       1
       9419.9690       70.374724       13.401989       1
       9432.6638       69.561825       16.419960       1
       9445.3586       78.832427       13.210206       1
       9458.0534       61.266772       16.271314       1
       9470.7481       71.963535       13.144446       1
       9483.4429       110.23695       16.404017       1
       9496.1377       77.618250       13.049784       1
       9508.8325       56.087563       16.022876       1
       9521.5273       55.177065       12.881416       1
       9534.2221       103.38807       16.218700       1
       9546.9168       45.751773       12.840778       1
       9559.6116       59.268616       15.905213       1
       9572.3064       76.605591       12.902611       1
       9585.0012       58.503566       15.797914       1
       9597.6960       70.199785       12.782052       1
       9610.3908       45.356494       15.676644       1
       9623.0856       69.203443       12.668253       1
       9635.7803       61.242734       15.656892       1
       9648.4751       81.258651       12.670683       1
       9661.1699       81.879573       15.683864       1
       9673.8647       64.198395       12.548368       1
       9686.5595       69.353979       15.547612       1
       9699.2543       70.219739       12.553751       1
       9711.9491       59.038551       15.493057       1
       9724.6438       73.124563       13.236664       1
       9737.3386       47.517363       15.407891       1
       9750.0334       52.320136       12.375833       1
       9762.7282       52.472550       15.342622       1
       9775.4230       75.012496       12.407384       1
       9788.1178       49.194310       15.213428       1
       9800.8126       63.268151       12.241399       1
       9813.5073       37.726218       15.035801       1
       9826.2021       49.867763       13.024926       1
       9838.8969       45.899115       15.000794       1
       9851.5917       56.999028       12.132659       1
       9864.2865       65.784064       15.058114       1
       9876.9813       40.769253       12.007212       1
       9889.6760       55.628937       14.944487       1
       9902.3708       41.465208       11.958833       1
       9915.0656       71.504640       15.002863       1
       9927.7604       63.658861       12.068503       1
       9940.4552       45.046807       12.556324       1
       9953.1500       70.535366       12.024093       1
       9965.8448       61.290202       14.491859       1
       9978.5395       71.381479       14.403774       1
       9991.2343       73.764725       14.811447       1
       10003.929       37.117387       11.804110       1
       10016.624       54.680874       14.578731       1
       10029.319       81.598877       11.926956       1
       10042.013       95.591661       14.755745       1
       10054.708       55.591938       16.035045       1
       10067.403       80.101094       14.650045       1
       10080.098       104.45397       11.893433       1
       10092.793       91.246158       14.638470       1
       10105.487       50.185051       11.618808       1
       10118.182       71.605335       15.230530       1
       10130.877       116.61023       11.876864       1
       10143.572       87.900569       14.580695       1
       10156.267       52.862088       11.616701       1
       10168.961       96.398316       14.540432       1
       10181.656       82.125395       11.678483       1
       10194.351       85.328752       14.464142       1
       10207.046       82.749458       11.651534       1
       10219.740       52.092297       14.301949       1
       10232.435       78.247983       11.567071       1
       10245.130       43.753462       14.148772       1
       10257.825       72.079611       11.563907       1
       10270.520       102.19754       14.491543       1
       10283.214       58.028179       11.346774       1
       10295.909       91.941554       14.270377       1
       10308.604       56.293875       11.341494       1
       10321.299       68.275461       14.051419       1
       10333.994       83.714555       11.410485       1
       10346.688       102.65708       14.128882       1
       10359.383       94.847647       11.382938       1
       10372.078       67.017649       13.953086       1
       10384.773       63.420286       11.146009       1
       10397.467       69.001521       14.045881       1
       10410.162       58.708808       11.187601       1
       10422.857       112.59150       14.124916       1
       10435.552       120.12476       11.441775       1
       10448.247       132.42294       14.187302       1
       10460.941       137.04114       11.495351       1
       10473.636       151.60092       14.334622       1
       10486.331       84.978636       11.227950       1
       10499.026       115.48353       14.091338       1
       10511.721       59.680676       11.107726       1
       10524.415       95.450837       13.966757       1
       10537.110       63.258093       13.330424       1
       10549.805       93.834922       13.937058       1
       10562.500       82.809919       11.191408       1
       10575.194       84.483565       13.819478       1
       10587.889       79.165207       11.196741       1
       10600.584       94.354470       13.966410       1
       10613.279       78.595836       11.174299       1
       10625.974       73.780466       13.861960       1
       10638.668       79.700528       11.163120       1
       10651.363       80.075938       13.875349       1
       10664.058       86.443928       11.200289       1
       10676.753       43.709651       13.655203       1
       10689.448       78.464317       11.132971       1
       10702.142       81.614427       13.788622       1
       10714.837       81.778348       11.088115       1
       10727.532       76.139285       13.666253       1
       10740.227       114.73553       11.196833       1
       10752.921       84.397414       13.656774       1
       10765.616       82.400001       11.017225       1
       10778.311       87.299401       13.646214       1
       10791.006       95.354544       11.046277       1
       10803.701       98.025178       13.669870       1
       10816.395       104.18404       11.067587       1
       10829.090       80.210159       13.623244       1
       10841.785       107.42520       11.084640       1
       10854.480       113.14595       13.758030       1
       10867.175       100.68767       12.503869       1
       10879.869       107.39286       13.742491       1
       10892.564       117.84559       12.619823       1
       10905.259       82.371809       13.563393       1
       10917.954       94.200959       10.965489       1
       10930.648       96.219209       13.561484       1
       10943.343       117.85653       11.042733       1
       10956.038       110.19078       13.648864       1
       10968.733       118.30782       10.952429       1
       10981.428       92.171325       13.480353       1
       10994.122       94.119814       10.931518       1
       11006.817       85.855957       13.440200       1
       11019.512       105.48014       10.913043       1
       11032.207       108.80524       13.556157       1
       11044.901       113.81731       10.987336       1
       11057.596       76.110424       13.389212       1
       11070.291       92.218521       10.898564       1
       11082.986       118.39788       13.657328       1
       11095.681       94.026184       10.884433       1
       11108.375       68.642219       13.404825       1
       11121.070       91.995662       10.880247       1
       11133.765       93.117739       13.503591       1
       11146.460       92.854191       10.887435       1
       11159.155       94.333868       13.342698       1
       11171.849       114.01408       10.947123       1
       11184.544       99.746330       13.470023       1
       11197.239       91.796745       10.853245       1
       11209.934       93.284035       13.418519       0
       11222.628       90.665414       10.812750       0
       11235.323       102.09750       13.510957       0
       11248.018       100.77575       10.931605       0
       11260.713       110.55434       13.431479       0
       11273.408       103.67189       10.904561       0
       11286.102       96.362747       13.464988       0
       11298.797       99.321822       10.875808       0
       11311.492       93.665998       13.482149       0
       11324.187       114.39293       10.960325       0
       11336.882       110.85576       15.202527       0
       11349.576       105.37926       10.875946       0
       11362.271       110.81135       13.523630       0
       11374.966       118.70659       10.967348       0
       11387.661       100.73733       13.493666       0
       11400.355       106.98727       10.904565       0
       11413.050       92.890000       13.434479       0
       11425.745       93.124185       10.833451       0
       11438.440       108.87618       13.536910       0
       11451.135       82.524610       10.896634       0
       11463.829       87.445376       13.699130       0
       11476.524       116.06155       11.417151       0
       11489.219       92.732738       16.147011       0
       11501.914       100.22927       11.981806       0
       11514.609       73.688753       6223956.3       0
       11527.303       95.475044       12.991876       0
       11539.998       74.325478       16.984908       0
       11552.693       63.685057       14.323454       0
       11565.388       100.12281       19.042311       0
       11578.082       94.696992       16.325401       0
       11590.777       71.189079       21.368608       0
       11603.472       122.23937       18.365461       0
       11616.167       60.401054       23.747045       0
       11628.862       97.585364       24.776417       0
       11641.556       82.169089       26.332590       0
       11654.251       71.149849       22.396360       0
       11666.946       78.899599       29.562699       0
       11679.641      -48.529561       25.404649       0
       11692.336       45.194586       34.247740       0
       11705.030      -82.309682       30.165849       0
       11717.725      -41.453951       41.628689       0
       11730.420      -9.5435097       37.413922       0
       11743.115      -472.98769       50.712982       0
       11755.809      -89.919041       45.949879       0
       11768.504      -449.51330       62.088684       0
       11781.199      -30.736372       55.637622       0
       11793.894      -171.09914       74.790055       0
       11806.589      -159.78936       67.764554       0
       11819.283      -2610.6161       91.431723       0
       11831.978      -147.35863       87.646631       0
       11844.673      -1209.2692       122.22400       0
       11857.368      -2391.2638       111.35280       0
       11870.063      -1588.0633       158.91312       0
       11882.757      -1339.5738       140.54413       0
       11895.452      -4021.0529       179.50050       0
       11908.147      -2352.6169       147.24893       0
       11920.842      -3165.7356       180.31225       0
       11933.536      -2842.6255       144.35369       0
       11946.231      -3422.0426       175.84438       0
       11958.926      -3609.2398       143.87307       0
       11971.621      -4024.0527       184.16801       0
       11984.316      -370.51964       155.47422       0
       11997.010      -6538.5886       205.68888       0
       12009.705       5323.2884       185.07077       0
       12022.400      -5778.8739       246.99794       0
       12035.095      -5792.5839       216.28916       0
       12047.790      -7146.6477       277.51813       0
       12060.484      -9554.6390       244.80281       0
       12073.179       33.545318       317.80635       0
