#WAVELENGTH FLUX ERROR MASK
       7527.0818      -9835.8394       249.50559       0
       7539.2904       430.64482       262.96742       0
       7551.4990      -2663.1379       187.55592       0
       7563.7076      -2134.0478       210.10617       0
       7575.9162       1085.3579       147.61961       0
       7588.1248       1296.3659       167.19148       0
       7600.3334      -956.30384       121.06850       0
       7612.5420      -2443.9807       138.09851       0
       7624.7506       242.89431       115.13847       0
       7636.9592      -380.26480       120.19333       0
       7649.1678       138.92087       89.285627       0
       7661.3764      -601.52430       102.06482       0
       7673.5850      -141.48858       75.052443       0
       7685.7936      -279.33577       85.530555       0
       7698.0022       110.53524       63.013925       0
       7710.2108      -189.29298       72.235385       0
       7722.4194       310.14390       54.199006       0
       7734.6280      -882.45227       62.654875       0
       7746.8365      -475.80619       48.156675       0
       7759.0451      -380.99782       57.937823       0
       7771.2537      -117.88791       44.663060       0
       7783.4623      -9.2107456       53.418000       0
       7795.6709      -447.90290       40.108261       0
       7807.8795      -89.144116       49.716779       0
       7820.0881      -38.060576       36.542701       0
       7832.2967      -283.96450       43.668594       0
       7844.5053       54.590834       33.155991       0
       7856.7139      -51.724496       46.420045       0
       7868.9225      -26.566636       29.991542       0
       7881.1311       140.99902       36.293888       0
       7893.3397      -26.180594       30.504024       0
       7905.5483      -1.8747597       33.523402       0
       7917.7569       20.277376       26.130540       0
       7929.9655      -46.697235       32.065741       0
       7942.1741      -89.117613       24.553549       0
       7954.3827       103.20765       30.573346       0
       7966.5913      -49.007536       23.748158       0
       7978.7999       3.2846070       29.020489       0
       7991.0084      -29.620872       22.542991       0
       8003.2170       63.021010       28.654936       0
       8015.4256       41.989815       22.230052       0
       8027.6342      -79.445986       27.098338       0
       8039.8428       49.290504       21.662643       0
       8052.0514       36.496465       26.748830       0
       8064.2600      -24.340176       23.975384       0
       8076.4686       64.884826       26.354718       0
       8088.6772       39.972093       20.956265       0
       8100.8858       21.593703       25.801568       0
       8113.0944       67.970672       20.560834       0
       8125.3030      -16.580845       25.319268       0
       8137.5116       31.710064       20.105175       0
       8149.7202       82.937015       25.122497       0
       8161.9288       54.524137       19.804976       1
       8174.1374     -0.10593880       24.540034       1
       8186.3460       44.473796       19.394752       1
       8198.5546       247.03899       24.734776       1
       8210.7632       117.22893       19.267454       1
       8222.9718       157.80231       24.382051       1
       8235.1804       146.83260       21.432359       1
       8247.3889       55.221931       23.145827       1
       8259.5975       80.865259       18.189014       1
       8271.8061       44.823467       22.462433       1
       8284.0147       24.663347       17.702100       1
       8296.2233       39.909895       21.945177       1
       8308.4319       44.492025       17.356384       1
       8320.6405       29.473755       21.332174       1
       8332.8491       94.869248       17.146800       1
       8345.0577       34.762340       21.045902       1
       8357.2663       40.363741       16.807123       1
       8369.4749       22.754087       20.804976       1
       8381.6835       11.134368       16.508512       1
       8393.8921       73.496763       20.694037       1
       8406.1007       72.082182       16.415431       1
       8418.3093       83.145103       20.490067       1
       8430.5179       49.473480       16.126528       1
       8442.7265       102.52047       20.113275       1
       8454.9351       29.745410       15.856269       1
       8467.1437       14.002517       19.549172       1
       8479.3523       84.958422       15.738923       1
       8491.5609       43.489376       19.493239       1
       8503.7694       20.402675       15.315524       1
       8515.9780       69.587455       19.216052       1
       8528.1866       9.6083011       15.121648       1
       8540.3952       3.9807636       18.904188       1
       8552.6038       35.350430       15.121251       1
       8564.8124       41.420149       19.307185       1
       8577.0210       61.183230       15.144137       1
       8589.2296       84.272457       19.065322       1
       8601.4382       44.643124       14.993065       1
       8613.6468       74.808152       19.403389       1
       8625.8554       56.831447       15.041463       1
       8638.0640       103.44505       18.933352       1
       8650.2726      -9.5260343       14.732091       1
       8662.4812       93.415824       18.701032       1
       8674.6898       41.900904       14.790230       1
       8686.8984       22.420891       18.253268       1
       8699.1070       66.612658       14.564519       1
       8711.3156       61.950058       18.360998       1
       8723.5242       118.05818       14.439713       1
       8735.7328       42.646122       17.636525       1
       8747.9413       14.791809       13.917719       1
       8760.1499       16.101300       17.332622       1
       8772.3585       61.638025       13.977794       1
       8784.5671       47.096973       17.608849       1
       8796.7757       69.138074       13.838320       1
       8808.9843       62.415304       17.036523       1
       8821.1929       52.728992       13.651894       1
       8833.4015       75.007045       17.144329       1
       8845.6101       63.531034       13.571387       1
       8857.8187       38.970666       16.692693       1
       8870.0273       33.662660       13.322505       1
       8882.2359       30.387796       16.817478       1
       8894.4445       34.097797       13.188447       1
       8906.6531       55.624721       16.848087       1
       8918.8617       22.182047       13.114597       1
       8931.0703       38.834745       16.624821       1
       8943.2789       130.35154       13.347682       1
       8955.4875       76.093021       16.693179       1
       8967.6961       102.88372       13.128474       1
       8979.9047       86.177456       16.590892       1
       8992.1133       124.19182       14.852109       1
       9004.3218       105.38495       18.944187       1
       9016.5304       69.259651       12.844268       1
       9028.7390       46.619646       15.884720       1
       9040.9476       49.433165       12.788415       1
       9053.1562       56.209200       15.838330       1
       9065.3648       56.378201       12.677776       1
       9077.5734       76.693872       15.751142       1
       9089.7820       73.850802       12.757175       1
       9101.9906       66.988841       15.636022       1
       9114.1992       62.402099       12.441578       1
       9126.4078       86.579765       15.598976       1
       9138.6164       68.142157       12.383362       1
       9150.8250       123.89871       15.543561       1
       9163.0336       48.837933       12.196350       1
       9175.2422       115.56345       18.342195       1
       9187.4508       116.67285       12.234615       1
       9199.6594       158.31774       15.839968       1
       9211.8680       170.58930       12.378375       1
       9224.0766       99.787642       15.158743       1
       9236.2852       68.932589       12.429127       1
       9248.4938       121.03456       15.044727       1
       9260.7023       92.409403       11.983050       1
       9272.9109       100.38695       14.937444       1
       9285.1195       69.548792       11.807559       1
       9297.3281       29.440980       14.548118       1
       9309.5367       73.528287       11.781356       1
       9321.7453       77.577353       14.629941       1
       9333.9539       71.750913       11.754490       1
       9346.1625       93.082722       14.901825       1
       9358.3711       87.514487       11.748371       1
       9370.5797       79.879842       14.635633       1
       9382.7883       90.634112       11.666986       1
       9394.9969       62.018579       14.384014       1
       9407.2055       86.215461       11.589438       1
       9419.4141       40.313609       14.240223       1
       9431.6227       74.018556       13.078353       1
       9443.8313       75.480111       21.696734       1
       9456.0399       41.316185       12.498090       1
       9468.2485       46.013678       14.012668       1
       9480.4571       69.967555       11.352541       1
       9492.6657       50.481111       14.720022       1
       9504.8742       69.363058       11.271544       1
       9517.0828       45.079694       14.451935       1
       9529.2914       64.329580       11.229885       1
       9541.5000       116.31321       14.535874       1
       9553.7086       69.579523       11.140472       1
       9565.9172       71.198081       13.913850       1
       9578.1258       42.393566       11.076521       1
       9590.3344       37.927203       13.961978       1
       9602.5430       73.696017       11.047492       1
       9614.7516       53.615990       13.774335       1
       9626.9602       100.33313       12.251525       1
       9639.1688       80.650983       14.074691       1
       9651.3774       83.241862       11.033920       1
       9663.5860       65.898530       13.676856       1
       9675.7946       85.404064       10.976295       1
       9688.0032       57.564805       13.746617       1
       9700.2118       77.620106       10.929728       1
       9712.4204       63.967668       13.495026       1
       9724.6290       62.679874       10.782338       1
       9736.8376       77.226068       13.448315       1
       9749.0462       74.543183       10.755506       1
       9761.2547       99.287944       20.647036       1
       9773.4633       70.194858       10.719273       1
       9785.6719       66.635456       13.352656       1
       9797.8805       91.985538       10.784726       1
       9810.0891       106.79005       13.575509       1
       9822.2977       75.478169       10.682679       1
       9834.5063       68.265712       13.339501       1
       9846.7149       79.927440       10.672182       1
       9858.9235       83.220408       13.375858       1
       9871.1321       70.476469       10.680594       1
       9883.3407       84.769316       13.340328       1
       9895.5493       59.723109       11.926158       1
       9907.7579       95.758952       13.384164       1
       9919.9665       52.511282       10.519830       1
       9932.1751       69.442795       13.261188       1
       9944.3837       88.542348       11.663893       1
       9956.5923       88.123414       13.567624       1
       9968.8009       81.425228       10.439993       1
       9981.0095       131.78016       13.643914       1
       9993.2181       112.96262       10.594197       1
       10005.427       67.313324       13.074230       1
       10017.635       80.699703       10.389673       1
       10029.844       81.922331       13.017331       1
       10042.052       62.132058       10.318332       1
       10054.261       72.172043       12.921297       1
       10066.470       83.966097       10.389651       1
       10078.678       57.097036       13.162227       1
       10090.887       83.083333       10.399092       1
       10103.095       76.545923       16.906837       1
       10115.304       61.330360       10.271652       1
       10127.513       58.874903       12.868259       1
       10139.721       83.042420       10.333970       1
       10151.930       71.524290       13.141714       1
       10164.138       82.612581       11.687322       1
       10176.347       104.86676       12.961991       1
       10188.556       59.055083       10.122704       1
       10200.764       84.293033       12.814821       1
       10212.973       68.611724       10.198914       1
       10225.181       85.467559       12.760988       1
       10237.390       90.013286       10.189260       1
       10249.599       103.14571       12.930691       1
       10261.807       66.284166       10.061569       1
       10274.016       64.092564       16.181921       1
       10286.224       64.159841       9.9874660       1
       10298.433       103.47131       12.693621       1
       10310.642       101.94683       10.120710       1
       10322.850       75.842625       12.548163       1
       10335.059       97.504849       10.106814       1
       10347.267       110.71382       12.898322       1
       10359.476       181.69701       10.469692       1
       10371.685       181.75181       13.321187       1
       10383.893       151.78421       10.322063       1
       10396.102       115.31263       12.702787       1
       10408.310       97.728608       10.109149       1
       10420.519       82.474488       12.519058       1
       10432.727       95.129609       10.060426       1
       10444.936       86.879370       12.530689       1
       10457.145       63.655868       10.956613       1
       10469.353       74.528834       12.457352       1
       10481.562       93.376757       10.074342       1
       10493.770       50.322965       16.059437       1
       10505.979       94.908687       10.081072       1
       10518.188       68.373511       12.408067       1
       10530.396       82.688902       10.022991       1
       10542.605       61.960171       10710673.       1
       10554.813       99.328802       10.057090       1
       10567.022       76.268036       12.391126       1
       10579.231       83.689042       9.9333107       1
       10591.439       98.137860       12.699699       1
       10603.648       116.53116       10.017925       1
       10615.856       97.454737       12.439557       1
       10628.065       110.43051       9.9233668       1
       10640.274       116.04817       12.709652       1
       10652.482       110.61770       9.8494809       1
       10664.691       99.907724       12.599015       1
       10676.899       107.81015       9.9255756       1
       10689.108       120.89149       12.371351       1
       10701.317       103.68214       9.8670936       1
       10713.525       108.52265       12.301484       1
       10725.734       110.26542       10.928373       1
       10737.942       105.77498       12.531523       1
       10750.151       103.49177       10.049994       1
       10762.360       83.632641       12.433968       1
       10774.568       131.33434       11.422854       1
       10786.777       135.11836       12.734889       1
       10798.985       116.16124       9.8396670       1
       10811.194       125.54640       12.177674       1
       10823.403       139.08429       9.9720911       1
       10835.611       124.18793       12.316734       1
       10847.820       115.12178       9.7633505       1
       10860.028       101.74749       12.385472       1
       10872.237       124.23044       9.8082709       1
       10884.446       132.87277       12.194770       1
       10896.654       146.36424       10.224064       1
       10908.863       124.73795       12.307642       1
       10921.071       166.07636       10.003141       1
       10933.280       143.55701       12.424660       1
       10945.488       138.95330       10.984891       1
       10957.697       135.60665       12.616691       1
       10969.906       125.14256       9.8132438       1
       10982.114       92.541832       12.087585       1
       10994.323       122.42339       9.8184841       1
       11006.531       133.79090       12.258264       1
       11018.740       110.19996       9.7750089       1
       11030.949       121.56803       12.290224       1
       11043.157       108.72610       9.7343001       1
       11055.366       122.61860       12.244182       1
       11067.574       114.71008       9.7195708       1
       11079.783       124.26860       12.266314       1
       11091.992       145.63763       9.9310040       1
       11104.200       112.72788       12.176800       1
       11116.409       116.38198       9.8171425       1
       11128.617       101.42374       12.048640       1
       11140.826       110.84661       9.8315848       1
       11153.035       129.06574       12.507672       1
       11165.243       103.02645       9.6786763       1
       11177.452       117.59172       12.238531       1
       11189.660       111.24238       9.8643584       1
       11201.869       139.89176       12.385756       0
       11214.078       130.43882       9.7411882       0
       11226.286       114.96062       12.016602       0
       11238.495       120.67531       9.8067174       0
       11250.703       105.25779       12.378669       0
       11262.912       130.81806       9.8326707       0
       11275.121       117.29114       12.480232       0
       11287.329       102.41936       11.158531       0
       11299.538       96.944198       12.363458       0
       11311.746       150.59987       10.256796       0
       11323.955       129.57189       13.017420       0
       11336.164       134.03031       10.693785       0
       11348.372       116.89028       13.824948       0
       11360.581       159.89059       11.705359       0
       11372.789       135.68245       15.243059       0
       11384.998       125.33768       12.868929       0
       11397.207       116.63275       17.069288       0
       11409.415       135.60547       14.637157       0
       11421.624       129.04449       19.458184       0
       11433.832       97.889854       16.424220       0
       11446.041       32.837705       21.426388       0
       11458.249       140.66045       18.309050       0
       11470.458       181.39792       24.206087       0
       11482.667       132.98591       20.346500       0
       11494.875       110.43843       27.068918       0
       11507.084      -6.2724275       23.233728       0
       11519.292       116.73743       31.829941       0
       11531.501       187.97422       28.317210       0
       11543.710       288.72979       39.623596       0
       11555.918      -65.187459       34.908921       0
       11568.127      -392.89670       48.326294       0
       11580.335       416.39627       43.800986       0
       11592.544       400.46636       60.196590       0
       11604.753       243.54003       52.973508       0
       11616.961      -100.38656       73.240484       0
       11629.170       504.24772       67.220401       0
       11641.378      -736.63557       96.450437       0
       11653.587       687.94189       87.436666       0
       11665.796      -588.51710       127.86538       0
       11678.004       1372.0027       115.43808       0
       11690.213       1634.8392       158.95643       0
       11702.421       124.06704       132.46335       0
       11714.630      -245.39080       167.85318       0
       11726.839      -2978.1740       131.84833       0
       11739.047      -1073.7121       162.74579       0
       11751.256      -152.74729       129.66233       0
       11763.464      -1854.1032       164.65909       0
       11775.673      -3194.0880       136.76843       0
       11787.882       991.66514       183.38998       0
       11800.090      -686.24421       159.84384       0
       11812.299       7175.9269       219.98008       0
       11824.507      -2565.7527       189.81919       0
       11836.716      -2224.2467       254.91851       0
       11848.925       560.45920       217.96894       0
       11861.133       3464.7902       293.98570       0
       11873.342      -2698.2416       288.42746       0
       11885.550      -16504.631       352.47626       0
       11897.759      -17241.137       314.44015       0
       11909.967      -46474.088       428.62498       0
