#WAVELENGTH FLUX ERROR MASK
       7515.7512       2204.1936       293.40296       0
       7528.4460       8303.7540       336.23456       0
       7541.1408       1082.9290       244.59826       0
       7553.8356       155.18046       269.08387       0
       7566.5304       2216.4894       193.09074       0
       7579.2252      -5217.8386       147.77565       0
       7591.9199      -3665.1237       151.79931       0
       7604.6147       136.02522       172.53924       0
       7617.3095      -632.29644       127.90748       0
       7630.0043      -19.448010       146.90250       0
       7642.6991      -1135.2573       109.02900       0
       7655.3939       908.49614       125.93405       0
       7668.0886      -1030.6844       91.941905       0
       7680.7834       662.87204       104.45162       0
       7693.4782       903.09510       76.926188       0
       7706.1730       1084.8536       87.889201       0
       7718.8678      -96.456040       64.939507       0
       7731.5626      -184.10249       75.150338       0
       7744.2574      -187.78860       57.650517       0
       7756.9521       27.114076       68.630409       0
       7769.6469      -10.968414       52.940252       0
       7782.3417      -185.91723       62.696254       0
       7795.0365       449.91617       48.802953       0
       7807.7313      -83.579005       57.079811       0
       7820.4261       143.28874       43.612386       0
       7833.1209       226.74244       51.386364       0
       7845.8156       372.10379       39.352915       0
       7858.5104       231.07741       45.551371       0
       7871.2052       135.01855       35.375980       0
       7883.9000       10.645939       41.528676       0
       7896.5948       139.27904       32.417044       0
       7909.2896       212.83996       39.536881       0
       7921.9843       141.54090       30.348048       0
       7934.6791       170.21619       36.187273       0
       7947.3739      -90.171375       28.353026       0
       7960.0687       29.511284       34.443205       0
       7972.7635       248.51052       27.759258       0
       7985.4583       156.51008       33.197011       0
       7998.1531       81.408534       26.507374       0
       8010.8478       394.34821       32.577109       0
       8023.5426       109.93959       25.735566       0
       8036.2374       250.03800       31.336491       0
       8048.9322       193.60995       25.278815       0
       8061.6270       139.12901       30.631513       0
       8074.3218       52.660559       24.465580       0
       8087.0166       154.47418       30.043030       0
       8099.7113       236.77149       24.379559       0
       8112.4061      -55.951911       28.886253       0
       8125.1009       263.70454       24.157954       0
       8137.7957       107.38500       28.794450       0
       8150.4905       196.37838       23.396380       1
       8163.1853       231.39613       28.676126       1
       8175.8801       100.94027       22.946193       1
       8188.5748       164.22348       27.912440       1
       8201.2696       106.54108       22.506795       1
       8213.9644       116.97582       27.217693       1
       8226.6592       141.07218       22.132305       1
       8239.3540       94.725712       26.740496       1
       8252.0488       174.00197       21.541298       1
       8264.7435       166.39462       25.955718       1
       8277.4383       45.487986       20.701435       1
       8290.1331       30.390402       25.196617       1
       8302.8279       60.277043       20.290302       1
       8315.5227       180.66479       24.928084       1
       8328.2175       42.788088       19.884576       1
       8340.9123       140.80870       14061727.       1
       8353.6070       103.05670       19.804019       1
       8366.3018       113.66221       24.291689       1
       8378.9966       104.86949       19.530153       1
       8391.6914       83.914396       24.083747       1
       8404.3862       102.89365       19.291139       1
       8417.0810       43.956535       23.660758       1
       8429.7758       72.959759       18.877901       1
       8442.4705       125.29508       23.397761       1
       8455.1653       86.670331       18.625418       1
       8467.8601       94.577075       22.914786       1
       8480.5549       116.00413       18.419683       1
       8493.2497       107.56833       22.686913       1
       8505.9445       99.384656       18.213133       1
       8518.6393       117.49307       22.397044       1
       8531.3340       93.481559       17.949085       1
       8544.0288       107.15222       22.098668       1
       8556.7236       22.791556       17.573521       1
       8569.4184       102.14444       22.075970       1
       8582.1132       56.247798       17.587522       1
       8594.8080       107.00270       21.965344       1
       8607.5027       122.28356       17.742065       1
       8620.1975       107.57781       21.839999       1
       8632.8923       154.38818       17.727818       1
       8645.5871       55.609199       21.476682       1
       8658.2819       98.215308       17.512296       1
       8670.9767       104.96426       21.609240       1
       8683.6715       101.57481       17.335776       1
       8696.3662       72.549182       21.174645       1
       8709.0610       127.29746       17.091104       1
       8721.7558       74.148893       20.728175       1
       8734.4506       58.477055       16.591099       1
       8747.1454       54.795722       20.397067       1
       8759.8402       55.541392       16.369534       1
       8772.5350       154.09643       20.676336       1
       8785.2297       104.81191       16.402355       1
       8797.9245       68.835802       20.326030       1
       8810.6193       33.806840       16.049135       1
       8823.3141       66.442852       20.228890       1
       8836.0089       116.66646       16.138903       1
       8848.7037       152.85493       20.259440       1
       8861.3985       75.852357       15.847623       1
       8874.0932       20.251465       19.532830       1
       8886.7880       106.15424       15.665389       1
       8899.4828       134.89472       19.826847       1
       8912.1776       57.975263       15.470011       1
       8924.8724       116.05125       19.565245       1
       8937.5672       45.339955       15.338531       1
       8950.2619       63.447892       19.220646       1
       8962.9567       104.13479       15.333493       1
       8975.6515       117.73020       19.168773       1
       8988.3463       135.10383       15.072329       1
       9001.0411       126.10634       19.059441       1
       9013.7359       141.66958       15.215012       1
       9026.4307       135.65170       18.677804       1
       9039.1254       220.23764       15.429450       1
       9051.8202       95.758431       18.642862       1
       9064.5150       79.111554       14.829093       1
       9077.2098       202.16159       19.313695       1
       9089.9046       99.331730       14.880474       1
       9102.5994       125.24867       18.616529       1
       9115.2942       48.761472       14.419570       1
       9127.9889       72.382681       18.262090       1
       9140.6837       86.489601       14.440578       1
       9153.3785       103.59564       18.198429       1
       9166.0733       53.382628       14.091139       1
       9178.7681       129.62411       17.737033       1
       9191.4629       108.81945       14.212102       1
       9204.1577       100.59771       17.501944       1
       9216.8524       80.370897       13.906282       1
       9229.5472       145.64470       17.507036       1
       9242.2420       196.52489       14.218094       1
       9254.9368       126.94602       17.309604       1
       9267.6316       135.93991       14.019536       1
       9280.3264       87.633502       16.965584       1
       9293.0211       103.53007       13.719175       1
       9305.7159       95.436398       17.003416       1
       9318.4107       72.885334       13.554124       1
       9331.1055       79.672419       16.761045       1
       9343.8003       88.716428       13.460770       1
       9356.4951       111.59405       16.907757       1
       9369.1899       85.220492       13.492947       1
       9381.8846       116.36604       16.816895       1
       9394.5794       50.591044       13.327658       1
       9407.2742       80.496270       16.613486       1
       9419.9690       89.818004       13.402842       1
       9432.6638       48.710268       16.314920       1
       9445.3586       79.198124       13.111493       1
       9458.0534       75.488888       16.353480       1
       9470.7481       73.287802       13.073187       1
       9483.4429       109.14586       16.419343       1
       9496.1377       78.368812       13.084534       1
       9508.8325       72.099771       16.183673       1
       9521.5273       68.133865       12.922385       1
       9534.2221       54.027328       11.354792       1
       9546.9168       110.18640       13.059655       1
       9559.6116       73.659353       15.987644       1
       9572.3064       66.308842       12.814448       1
       9585.0012       117.20413       16.132840       1
       9597.6960       94.782959       12.746689       1
       9610.3908       59.089981       15.380573       1
       9623.0856       60.158333       12.587346       1
       9635.7803       63.268683       15.315312       1
       9648.4751       79.900230       12.576885       1
       9661.1699       78.222485       15.169893       1
       9673.8647       79.732004       12.422554       1
       9686.5595       56.543542       15.098182       1
       9699.2543       105.66027       12.542759       1
       9711.9491       140.15081       15.503217       1
       9724.6438       67.616716       12.424200       1
       9737.3386       120.90587       15.309345       1
       9750.0334       53.178562       12.309338       1
       9762.7282       114.95824       15.270684       1
       9775.4230       70.553430       12.257104       1
       9788.1178       51.927237       14.837285       1
       9800.8126       70.187517       12.157493       1
       9813.5073       58.702396       14.784009       1
       9826.2021       87.722767       12.190638       1
       9838.8969       80.842922       14.847622       1
       9851.5917       87.076048       12.133727       1
       9864.2865       72.972196       14.787921       1
       9876.9813       81.253158       12.042170       1
       9889.6760       79.784434       14.696717       1
       9902.3708       89.656124       12.071307       1
       9915.0656       70.280311       14.712801       1
       9927.7604       80.569450       12.073682       1
       9940.4552       74.817730       14.542610       1
       9953.1500       30.598550       11.786659       1
       9965.8448       74.046455       14.588819       1
       9978.5395       99.429880       11.949806       1
       9991.2343       53.747483       14.474504       1
       10003.929       92.866515       12.018362       1
       10016.624       53.365502       14.664561       1
       10029.319       95.616242       11.950373       1
       10042.013       83.405301       14.619210       1
       10054.708       129.89026       12.002826       1
       10067.403       138.74008       14.872238       1
       10080.098       104.67346       11.854014       1
       10092.793       118.32022       14.717925       1
       10105.487       98.354027       11.791829       1
       10118.182       52.990136       15.166085       1
       10130.877       97.100030       11.586254       1
       10143.572       87.975157       14.483571       1
       10156.267       116.68386       11.784449       1
       10168.961       97.513715       14.592269       1
       10181.656       101.76083       11.732245       1
       10194.351       114.48654       14.564200       1
       10207.046       104.93852       11.747470       1
       10219.740       92.023429       14.557964       1
       10232.435       117.43098       13.355371       1
       10245.130       64.915041       14.247119       1
       10257.825       76.391344       11.401321       1
       10270.520       72.882214       14.272373       1
       10283.214       111.42214       11.605302       1
       10295.909       87.951551       14.239220       1
       10308.604       120.94276       11.613487       1
       10321.299       70.793113       14.127008       1
       10333.994       89.293756       11.416143       1
       10346.688       101.24891       14.275496       1
       10359.383       93.980407       11.377974       1
       10372.078       107.66635       14.167937       1
       10384.773       101.66336       11.344459       1
       10397.467       117.76268       14.118559       1
       10410.162       90.964803       11.303950       1
       10422.857       155.60380       14.653274       1
       10435.552       167.47230       11.750988       1
       10448.247       209.92426       14.879970       1
       10460.941       217.73512       11.930523       1
       10473.636       173.53685       14.818738       1
       10486.331       174.28584       11.725006       1
       10499.026       124.57980       14.432842       1
       10511.721       81.334685       11.265719       1
       10524.415       114.57808       14.358142       1
       10537.110       117.42783       11.446982       1
       10549.805       139.31756       14.446175       1
       10562.500       142.56512       11.578588       1
       10575.194       108.95536       14.309189       1
       10587.889       164.44206       11.653331       1
       10600.584       107.45641       14.329329       1
       10613.279       100.93100       11.340705       1
       10625.974       84.573568       14.173889       1
       10638.668       129.19580       11.425467       1
       10651.363       105.47196       14.388613       1
       10664.058       146.19668       11.578890       1
       10676.753       98.937145       13.911802       1
       10689.448       130.85189       11.510862       1
       10702.142       147.19115       14.419767       1
       10714.837       130.77931       11.362359       1
       10727.532       165.92814       14.417924       1
       10740.227       143.48698       11.384656       1
       10752.921       141.36065       14.250517       1
       10765.616       126.76104       11.335236       1
       10778.311       135.10724       14.228980       1
       10791.006       130.47673       11.256933       1
       10803.701       100.93722       13.959620       1
       10816.395       107.13355       11.226942       1
       10829.090       113.01124       14.130363       1
       10841.785       127.05497       12.788413       1
       10854.480       136.13557       13.860128       1
       10867.175       122.23754       11.110721       1
       10879.869       148.35418       13.919741       1
       10892.564       170.94615       15.995848       1
       10905.259       110.46508       13.712171       1
       10917.954       132.14641       11.140865       1
       10930.648       170.61546       14.015269       1
       10943.343       139.44567       11.176028       1
       10956.038       135.50120       13.868572       1
       10968.733       135.16282       11.104499       1
       10981.428       159.90887       13.862146       1
       10994.122       130.49876       11.072657       1
       11006.817       145.04449       13.785435       1
       11019.512       155.96927       11.170498       1
       11032.207       117.17470       13.657424       1
       11044.901       118.66555       11.011031       1
       11057.596       111.50216       13.628341       1
       11070.291       110.34448       10.970421       1
       11082.986       126.37070       13.585883       1
       11095.681       118.45362       11.024754       1
       11108.375       123.36747       13.611267       1
       11121.070       145.81583       11.112913       1
       11133.765       130.28829       13.640363       1
       11146.460       129.56541       10.983203       1
       11159.155       116.16263       13.586820       1
       11171.849       117.28911       10.993688       1
       11184.544       135.07732       13.660691       1
       11197.239       123.77051       15.523444       1
       11209.934       142.98655       13.664888       0
       11222.628       129.24485       11.007754       0
       11235.323       127.35313       13.557193       0
       11248.018       147.23290       11.075041       0
       11260.713       134.16977       13.104611       0
       11273.408       118.80107       10.859628       0
       11286.102       147.90337       13.447056       0
       11298.797       91.544842       10.806176       0
       11311.492       114.95076       13.290672       0
       11324.187       95.709591       10.740805       0
       11336.882       139.88371       13.398007       0
       11349.576       122.19768       10.829326       0
       11362.271       115.69234       13.227109       0
       11374.966       148.90034       10.987734       0
       11387.661       148.20195       13.318953       0
       11400.355       141.37916       10.962996       0
       11413.050       120.62762       13.293597       0
       11425.745       111.68528       10.854033       0
       11438.440       135.96819       13.422140       0
       11451.135       128.13036       10.962920       0
       11463.829       124.70394       13.570184       0
       11476.524       102.79038       12.253617       0
       11489.219       80.721118       13.995171       0
       11501.914       81.722160       12.835141       0
       11514.609       122.74378       15.142876       0
       11527.303       91.368914       12.885505       0
       11539.998       137.49209       16.783753       0
       11552.693       89.067647       14.330488       0
       11565.388       54.673290       18.514236       0
       11578.082       57.072561       16.071987       0
       11590.777       88.558065       21.060415       0
       11603.472       29.659174       18.026105       0
       11616.167       27.683104       23.288562       0
       11628.862       136.37818       20.092560       0
       11641.556       27.102309       25.752973       0
       11654.251      -29.261773       21.915849       0
       11666.946       136.89904       29.103349       0
       11679.641       174.14671       25.677437       0
       11692.336      -83.258385       34.124275       0
       11705.030       3.6517417       30.358346       0
       11717.725       130.49889       41.870260       0
       11730.420       46.918565       37.483864       0
       11743.115      -350.14675       50.904725       0
       11755.809       17.231633       45.480174       0
       11768.504       363.60926       63.251846       0
       11781.199       323.63057       55.855450       0
       11793.894      -772.54771       74.902458       0
       11806.589      -571.30681       67.623712       0
       11819.283      -1155.2511       94.602669       0
       11831.978       697.47521       87.919565       0
       11844.673      -2698.7237       121.86572       0
       11857.368      -281.75427       113.44419       0
       11870.063      -2401.7586       159.19053       0
       11882.757       1209.9270       141.59273       0
       11895.452      -2825.4664       181.20234       0
       11908.147      -1684.0493       147.18712       0
       11920.842       4043.6772       182.78557       0
       11933.536      -3447.7495       141.98672       0
       11946.231      -3535.8892       176.75239       0
       11958.926      -404.99345       144.88631       0
       11971.621      -3217.5958       183.79646       0
       11984.316       2662.9064       158.41461       0
       11997.010      -1112.5141       209.80408       0
       12009.705      -5896.1322       180.38107       0
       12022.400      -204.38907       248.80763       0
       12035.095      -7189.5809       215.30626       0
       12047.790      -8265.4375       284.38614       0
       12060.484       2098.9704       245.84538       0
       12073.179      -7223.7983       323.71924       0
