#WAVELENGTH FLUX ERROR MASK
       10268.752      -234.53384       153.87908       0
       10292.194       997.53757       155.75625       0
       10315.636       1312.7611       136.04752       0
       10339.078       631.59131       138.49868       0
       10362.521      -902.56035       119.88110       0
       10385.963       743.09011       126.04661       0
       10409.405       1259.1695       111.55522       0
       10432.847       761.42335       112.97227       0
       10456.289       424.19873       97.532422       0
       10479.731       34.662613       95.498747       0
       10503.173       451.63539       82.754957       0
       10526.615       535.78741       81.257484       0
       10550.057       196.18403       70.042337       0
       10573.500       422.95472       70.388358       0
       10596.942       323.62632       61.825993       0
       10620.384      -52.707173       54.696048       0
       10643.826       125.62256       55.002117       0
       10667.268       53.141947       48.929736       0
       10690.710       49.560329       48.526935       0
       10714.152       136.29414       48.072452       0
       10737.594       177.00186       41.207169       0
       10761.037       119.97496       39.912204       0
       10784.479       174.37256       34.357641       0
       10807.921       56.394288       33.215459       0
       10831.363       104.22441       29.285459       0
       10854.805       100.23807       29.448232       0
       10878.247       85.431254       26.179939       0
       10901.689       98.650067       26.938216       0
       10925.131      -10.296764       21.009291       0
       10948.573       58.991997       25.442264       0
       10972.016       74.012797       22.378701       0
       10995.458       74.509285       23.902925       0
       11018.900       91.204718       21.030104       1
       11042.342       113.03738       22.574480       1
       11065.784       66.867761       19.611260       1
       11089.226       103.14984       21.225099       1
       11112.668       75.709512       18.701059       1
       11136.110       59.666103       20.249065       1
       11159.553       62.562831       18.118508       1
       11182.995       80.705048       19.940170       1
       11206.437       76.484190       17.908404       1
       11229.879       62.960909       19.545038       1
       11253.321       77.637662       17.696545       1
       11276.763       32.782447       17.067587       1
       11300.205       62.160610       17.439580       1
       11323.647       63.611477       19.147960       1
       11347.089       77.409241       17.403214       1
       11370.532       58.462003       18.982092       1
       11393.974       58.581865       15.568283       1
       11417.416       82.784179       18.961475       1
       11440.858       77.706666       17.153675       1
       11464.300       58.930849       18.485404       1
       11487.742       54.743894       16.985336       1
       11511.184       71.418150       18.521437       1
       11534.626       45.582888       16.842069       1
       11558.069       55.523934       18.176890       1
       11581.511       65.267298       16.914585       1
       11604.953       52.926819       18.188866       1
       11628.395       75.723808       16.833811       1
       11651.837       67.416393       18.079808       1
       11675.279       79.562976       16.733600       1
       11698.721       44.074484       17.679056       1
       11722.163       76.383913       16.480283       1
       11745.606       40.573083       15.651305       1
       11769.048       65.668756       16.274730       1
       11792.490       70.666211       17.422604       1
       11815.932       70.927388       16.099794       1
       11839.374       86.336629       17.441145       1
       11862.816       70.166192       15.854517       1
       11886.258       75.619996       17.329328       1
       11909.700       68.527455       15.832872       1
       11933.142       67.223608       17.053940       1
       11956.585       48.221977       15.535796       1
       11980.027       50.343868       16.769257       1
       12003.469       64.007132       15.578148       1
       12026.911       76.143233       16.882909       1
       12050.353       68.577212       15.562322       1
       12073.795       51.365251       14.357767       1
       12097.237       67.526506       15.380141       1
       12120.679       53.766411       16.449477       1
       12144.122       85.087293       15.500273       1
       12167.564       86.970769       16.705741       1
       12191.006       70.837137       15.265173       1
       12214.448       77.661147       16.559844       1
       12237.890       60.776616       15.042213       1
       12261.332       79.604057       16.405708       1
       12284.774       73.544209       14.945638       1
       12308.216       72.946489       16.271077       1
       12331.658       71.801156       14.810527       1
       12355.101       66.098501       16.157767       1
       12378.543       69.399255       14.920757       1
       12401.985       56.840176       15.982580       1
       12425.427       84.463839       14.961962       1
       12448.869       82.986285       16.465070       1
       12472.311       78.999390       14.854734       1
       12495.753       67.223759       16.251905       1
       12519.195       72.432774       14.867023       1
       12542.638       74.625585       16.244138       1
       12566.080       84.701575       14.926753       1
       12589.522       85.600596       16.352458       1
       12612.964       71.264267       14.760746       1
       12636.406       86.669622       16.358512       1
       12659.848       78.468009       14.800127       1
       12683.290       83.222962       4364391.8       1
       12706.732       64.997634       14.586623       1
       12730.174       81.106958       16.091077       1
       12753.617       69.019853       14.418757       1
       12777.059       75.953892       15.961671       1
       12800.501       96.805641       14.639138       1
       12823.943       85.943944       15.945049       1
       12847.385       73.996496       14.338620       1
       12870.827       75.892343       15.809030       1
       12894.269       74.747575       14.324722       1
       12917.711       82.096494       15.376369       1
       12941.154       80.100046       14.434054       1
       12964.596       85.542678       15.352884       1
       12988.038       71.639055       14.248396       1
       13011.480       72.448064       15.101914       1
       13034.922       83.641491       14.273938       1
       13058.364       81.408276       15.116196       1
       13081.806       89.929649       14.210991       1
       13105.248       88.064141       15.172717       1
       13128.690       89.921747       14.169197       1
       13152.133       90.083323       15.081147       1
       13175.575       74.780198       13.919723       1
       13199.017       99.871235       15.045961       1
       13222.459       82.039274       13.944819       1
       13245.901       83.547856       14.731872       1
       13269.343       91.569734       13.988015       1
       13292.785       107.46948       15.069520       1
       13316.227       96.616276       14.002282       1
       13339.670       121.25775       15.157293       1
       13363.112       111.00398       14.330854       1
       13386.554       121.02315       15.081714       1
       13409.996       115.31300       14.340444       1
       13433.438       130.64817       15.407605       1
       13456.880       116.59291       14.002046       1
       13480.322       127.09521       15.158939       1
       13503.764       112.70403       13.891619       1
       13527.206       107.75224       14.954669       1
       13550.649       96.745193       13.643798       1
       13574.091       84.295380       14.642247       1
       13597.533       86.236686       13.545315       1
       13620.975       66.678286       15.228713       1
       13644.417       70.174771       13.349695       1
       13667.859       85.849783       14.621940       1
       13691.301       74.463449       13.339781       1
       13714.743       80.112640       14.466687       1
       13738.186       75.431840       13.371780       1
       13761.628       80.785982       14.554255       1
       13785.070       93.560641       13.498193       1
       13808.512       76.338751       14.451360       1
       13831.954       70.854959       13.220708       1
       13855.396       72.514150       14.367510       1
       13878.838       92.815781       13.329005       1
       13902.280       79.053717       14.394386       1
       13925.723       70.231785       13.242122       1
       13949.165       84.161724       14.393460       1
       13972.607       72.088927       13.123548       1
       13996.049       78.361106       14.275468       1
       14019.491       68.985310       13.128767       1
       14042.933       70.777375       15.203698       1
       14066.375       98.214120       13.205761       1
       14089.817       90.544483       14.232390       1
       14113.259       75.766471       12.921658       1
       14136.702       76.591574       14.082173       1
       14160.144       65.129499       12.774557       1
       14183.586       80.694095       14.096471       1
       14207.028       77.246641       12.983797       1
       14230.470       88.598392       14.098736       1
       14253.912       85.752056       12.939048       1
       14277.354       89.159897       14.117517       1
       14300.796       83.092520       12.853671       1
       14324.239       80.285180       14.130039       1
       14347.681       79.451652       12.829825       1
       14371.123       76.298568       13.853363       1
       14394.565       86.640639       12.890972       1
       14418.007       78.159418       13.654140       1
       14441.449       80.874284       12.889855       1
       14464.891       89.196788       13.835119       1
       14488.333       85.274052       12.835557       1
       14511.775       82.837742       13.749714       1
       14535.218       81.494140       12.804291       1
       14558.660       87.609027       13.758193       1
       14582.102       81.341702       12.855394       1
       14605.544       87.765007       13.733149       1
       14628.986       85.743523       12.904703       1
       14652.428       89.633882       13.795095       1
       14675.870       89.186762       12.975766       1
       14699.312       87.389984       13.727721       1
       14722.755       84.972987       12.815354       1
       14746.197       84.888143       13.718344       1
       14769.639       87.032522       12.882842       1
       14793.081       81.709927       13.728297       1
       14816.523       90.221738       12.914436       1
       14839.965       94.045450       13.804720       1
       14863.407       86.567471       12.818068       1
       14886.849       58.902898       11.908885       1
       14910.291       86.554419       12.850172       1
       14933.734       82.658849       13.837518       1
       14957.176       92.449036       12.708634       1
       14980.618       86.034437       13.806025       1
       15004.060       88.263198       12.631192       1
       15027.502       101.02661       13.964344       1
       15050.944       88.590402       12.615578       1
       15074.386       63.770449       13.012201       1
       15097.828       86.953075       12.642679       1
       15121.271       84.403182       13.831959       1
       15144.713       93.578159       12.670276       1
       15168.155       88.518533       13.893505       1
       15191.597       97.621636       12.583350       1
       15215.039       88.003967       3766044.7       1
       15238.481       94.650551       12.611447       1
       15261.923       80.080624       13.748888       1
       15285.365       102.46277       12.723272       1
       15308.807       89.552751       13.816545       1
       15332.250       67.413841       11.268470       1
       15355.692       74.838906       12.656837       1
       15379.134       70.993259       11.287803       1
       15402.576       96.742354       13.911771       1
       15426.018       88.192147       12.629842       1
       15449.460       86.691050       13.688411       1
       15472.902       75.477562       12.448822       1
       15496.344       67.647503       13.451918       1
       15519.787       70.839281       12.411777       1
       15543.229       81.946284       13.597194       1
       15566.671       64.014490       10.824379       1
       15590.113       99.215064       13.781888       1
       15613.555       91.450916       12.561374       1
       15636.997       72.853820       11.641963       1
       15660.439       76.606606       12.440774       1
       15683.881       95.403063       13.426591       1
       15707.324       89.265100       12.560328       1
       15730.766       87.565719       13.560340       1
       15754.208       82.053153       12.491845       1
       15777.650       82.402514       13.444402       1
       15801.092       86.770418       12.531135       1
       15824.534       63.225761       13.233705       1
       15847.976       79.957607       4190021.5       1
       15871.418       81.022020       13.463632       1
       15894.860       73.672595       12.393731       1
       15918.303       81.651997       13.470251       1
       15941.745       83.532892       12.482534       1
       15965.187       70.634197       13.377297       1
       15988.629       78.654660       12.404811       1
       16012.071       75.392373       13.374709       1
       16035.513       80.917936       12.457161       1
       16058.955       82.875494       13.469134       1
       16082.397       76.489372       12.394306       1
       16105.840       56.051232       11.826984       1
       16129.282       87.234956       12.567483       1
       16152.724       85.488715       13.409294       1
       16176.166       81.416928       12.479414       1
       16199.608       81.221250       13.545312       1
       16223.050       72.188460       12.443274       1
       16246.492       81.369125       13.635505       1
       16269.934       83.549544       12.576888       1
       16293.376       81.544860       13.582696       1
       16316.819       78.203362       12.589281       1
       16340.261       75.709890       13.597619       1
       16363.703       74.648033       12.524549       1
       16387.145       81.367751       13.669753       1
       16410.587       85.437591       12.644341       1
       16434.029       88.573537       13.920956       1
       16457.471       73.716238       12.473780       1
       16480.913       83.221355       13.971829       1
       16504.356       79.015364       12.646111       1
       16527.798       77.001722       14.051875       1
       16551.240       77.899652       12.878983       1
       16574.682       91.724017       14.471077       1
       16598.124       89.062792       13.420306       1
       16621.566       100.76163       15.252911       1
       16645.008       75.445429       13.997473       1
       16668.450       86.017350       16.062792       1
       16691.892       91.369281       15.167587       1
       16715.335       99.070066       17.594710       1
       16738.777       80.750630       15.091885       1
       16762.219       102.32584       19.592588       0
       16785.661       95.051368       18.854290       0
       16809.103       85.185298       21.956957       0
       16832.545       119.98222       21.513625       0
       16855.987       111.71315       25.066754       0
       16879.429       109.29840       24.164168       0
       16902.872       99.348793       28.064818       0
       16926.314       104.27997       26.957673       0
       16949.756       101.59045       30.611585       0
       16973.198       111.92583       30.227723       0
       16996.640       148.51991       34.126036       0
       17020.082       100.49407       33.339993       0
       17043.524       93.152385       37.779395       0
       17066.966       49.292205       36.682080       0
       17090.408      -6.6606899       41.720936       0
       17113.851       2.2297994       37.820759       0
       17137.293      -51.015808       46.628130       0
       17160.735       218.32132       47.245768       0
       17184.177       303.27547       54.289867       0
       17207.619       97.543264       53.859090       0
       17231.061       211.17891       61.912461       0
       17254.503      -94.021615       61.116882       0
       17277.945      -81.330551       69.646912       0
       17301.388       49.776887       69.484772       0
       17324.830       408.40783       78.515834       0
       17348.272      -142.45472       76.242068       0
       17371.714      -95.447474       85.330635       0
       17395.156       63.430785       84.656204       0
       17418.598      -5.1240106       97.024242       0
       17442.040       279.57420       93.866576       0
       17465.482       200.09344       105.54564       0
       17488.925      -356.03241       102.58570       0
       17512.367      -1331.4004       118.78459       0
       17535.809       147.42984       122.98337       0
       17559.251      -444.29716       151.41931       0
