#WAVELENGTH FLUX ERROR MASK
       7515.7512       108.88164       14137.158       0
       7528.4460      -9314.0220       14616.005       0
       7541.1408       1119.5513       9888.6015       0
       7553.8356       8495.4531       9687.7053       0
       7566.5304      -6789.5721       6037.7945       0
       7579.2252      -2219.6531       5905.3378       0
       7591.9199       646.96991       3882.4045       0
       7604.6147       910.26998       3969.6655       0
       7617.3095      -715.16216       2686.7636       0
       7630.0043       3972.6762       2894.2582       0
       7642.6991       231.57154       1977.7531       0
       7655.3939       1346.1675       2101.8241       0
       7668.0886      -709.14633       1405.4649       0
       7680.7834      -973.10623       1438.0391       0
       7693.4782      -92.155417       963.63671       0
       7706.1730      -357.73063       994.52030       0
       7718.8678       181.11999       698.19004       0
       7731.5626      -115.37962       753.91237       0
       7744.2574      -44.116043       550.61080       0
       7756.9521      -61.396223       622.43169       0
       7769.6469      -367.89986       514.32979       0
       7782.3417       569.62003       533.24718       0
       7795.0365      -15.374072       386.99608       0
       7807.7313      -56.457576       432.28326       0
       7820.4261       329.99422       314.29000       0
       7833.1209       21.505169       345.61743       0
       7845.8156       21.122084       249.79673       0
       7858.5104       321.97948       280.89089       0
       7871.2052       81.716215       233.38648       0
       7883.9000       246.93405       233.71962       0
       7896.5948       134.04789       174.38504       0
       7909.2896       63.931009       201.89471       0
       7921.9843       86.863978       154.47645       0
       7934.6791       91.638910       182.21628       0
       7947.3739       166.80871       140.07930       0
       7960.0687       95.608043       164.70486       0
       7972.7635       153.49473       127.87723       0
       7985.4583       113.98603       151.83183       0
       7998.1531       127.38884       118.08968       0
       8010.8478       39.842235       141.45140       0
       8023.5426       81.527164       110.48388       0
       8036.2374       147.80739       134.21443       0
       8048.9322       124.17447       105.66938       0
       8061.6270       35.242784       127.43041       0
       8074.3218       92.408515       101.51116       0
       8087.0166       22.369215       123.38267       0
       8099.7113       70.518003       98.235784       0
       8112.4061       69.889578       118.95669       0
       8125.1009       57.665485       93.799304       0
       8137.7957       75.699885       114.14714       0
       8150.4905       54.962656       90.062043       1
       8163.1853       100.61491       110.82962       1
       8175.8801       96.644090       88.310821       1
       8188.5748       135.13855       106.90776       1
       8201.2696       39.448654       84.332189       1
       8213.9644       59.775674       101.92866       1
       8226.6592       4.6001047       79.903936       1
       8239.3540       132.99872       97.588025       1
       8252.0488       65.678349       76.727754       1
       8264.7435       70.066435       91.886265       1
       8277.4383       44.339091       72.483286       1
       8290.1331       77.058905       87.769361       1
       8302.8279       51.485670       69.118704       1
       8315.5227      -11.780414       83.113843       1
       8328.2175       133.03971       67.002109       1
       8340.9123       65.925538       59.499004       1
       8353.6070       169.89185       65.391102       1
       8366.3018       97.838443       79.011190       1
       8378.9966       104.22963       63.004065       1
       8391.6914       128.35594       77.079648       1
       8404.3862       106.06051       85.249198       1
       8417.0810       200.23597       75.609321       1
       8429.7758       65.337984       59.125689       1
       8442.4705       129.89202       73.023706       1
       8455.1653       40.080642       56.694219       1
       8467.8601       76.831763       69.622592       1
       8480.5549       30.904562       55.099474       1
       8493.2497       56.377881       67.613646       1
       8505.9445       90.847828       54.162270       1
       8518.6393       70.694805       66.220879       1
       8531.3340       141.75304       53.510331       1
       8544.0288       50.970596       64.603767       1
       8556.7236       90.259413       51.844557       1
       8569.4184       49.035096       63.647944       1
       8582.1132       105.26377       51.197856       1
       8594.8080       101.81788       63.458753       1
       8607.5027       147.69682       51.498644       1
       8620.1975      -2.7963641       61.998517       1
       8632.8923       102.64745       50.964344       1
       8645.5871       41.846049       62.267786       1
       8658.2819       48.684887       49.833962       1
       8670.9767       155.49345       62.299850       1
       8683.6715       87.913691       49.136905       1
       8696.3662       121.12683       60.244826       1
       8709.0610       53.286813       47.327053       1
       8721.7558       143.07398       58.178910       1
       8734.4506       108.77633       45.923374       1
       8747.1454       90.042845       55.891481       1
       8759.8402       41.121548       43.824387       1
       8772.5350       99.555096       53.982762       1
       8785.2297       86.392011       43.141316       1
       8797.9245       31.969982       52.294664       1
       8810.6193       74.286283       42.184551       1
       8823.3141       42.918809       51.580425       1
       8836.0089       92.026980       41.492979       1
       8848.7037       46.191505       50.513160       1
       8861.3985       46.187305       40.333718       1
       8874.0932       63.175070       49.634358       1
       8886.7880       63.218715       39.516976       1
       8899.4828       64.771505       48.327894       1
       8912.1776       105.50703       39.244256       1
       8924.8724       46.437601       47.632898       1
       8937.5672       75.830856       38.344685       1
       8950.2619       86.116182       47.087047       1
       8962.9567       84.669671       37.831603       1
       8975.6515       86.698084       46.301764       1
       8988.3463       73.281301       36.687348       1
       9001.0411       52.866923       44.937025       1
       9013.7359       91.872378       36.285039       1
       9026.4307       90.494039       44.350110       1
       9039.1254       103.81550       35.976522       1
       9051.8202       103.21154       44.383345       1
       9064.5150       74.131484       35.614867       1
       9077.2098       95.266763       44.068979       1
       9089.9046       74.545229       35.253361       1
       9102.5994       67.013190       43.279228       1
       9115.2942       56.176144       34.374455       1
       9127.9889       84.661791       42.594258       1
       9140.6837       53.376041       33.870070       1
       9153.3785       80.710434       41.458375       1
       9166.0733       61.319566       33.146308       1
       9178.7681       54.737595       40.592319       1
       9191.4629       36.484324       32.238284       1
       9204.1577       94.695238       40.240440       1
       9216.8524       117.81256       32.223609       1
       9229.5472       125.05983       39.525852       1
       9242.2420       66.353138       31.349316       1
       9254.9368       70.285760       38.533202       1
       9267.6316       65.944098       32.203328       1
       9280.3264       78.883601       38.261160       1
       9293.0211       101.51588       30.808657       1
       9305.7159       51.453778       37.647914       1
       9318.4107       55.554887       29.958215       1
       9331.1055       49.503972       37.043715       1
       9343.8003       62.763781       29.757306       1
       9356.4951       61.191772       36.864311       1
       9369.1899       61.333994       29.703833       1
       9381.8846       75.671601       36.441880       1
       9394.5794       52.567278       29.372436       1
       9407.2742       65.126993       36.141316       1
       9419.9690       70.374724       29.304647       1
       9432.6638       69.561825       35.780554       1
       9445.3586       78.832427       28.679405       1
       9458.0534       61.266772       35.192402       1
       9470.7481       71.963535       28.332301       1
       9483.4429       110.23695       35.244490       1
       9496.1377       77.618250       27.954202       1
       9508.8325       56.087563       34.226138       1
       9521.5273       55.177065       27.441480       1
       9534.2221       103.38807       34.459704       1
       9546.9168       45.751773       27.210949       1
       9559.6116       59.268616       33.616123       1
       9572.3064       76.605591       27.197916       1
       9585.0012       58.503566       33.216348       1
       9597.6960       70.199785       26.809846       1
       9610.3908       45.356494       32.794249       1
       9623.0856       69.203443       26.424828       1
       9635.7803       61.242734       32.564429       1
       9648.4751       81.258651       26.278082       1
       9661.1699       81.879573       32.448898       1
       9673.8647       64.198395       25.909947       1
       9686.5595       69.353979       32.046331       1
       9699.2543       70.219739       25.834380       1
       9711.9491       59.038551       31.823720       1
       9724.6438       73.124563       27.132973       1
       9737.3386       47.517363       31.514049       1
       9750.0334       52.320136       25.252645       1
       9762.7282       52.472550       31.225168       1
       9775.4230       75.012496       25.183085       1
       9788.1178       49.194310       30.800351       1
       9800.8126       63.268151       24.724489       1
       9813.5073       37.726218       30.306042       1
       9826.2021       49.867763       26.206873       1
       9838.8969       45.899115       30.141103       1
       9851.5917       56.999028       24.350508       1
       9864.2865       65.784064       30.189403       1
       9876.9813       40.769253       24.048205       1
       9889.6760       55.628937       29.899545       1
       9902.3708       41.465208       23.900511       1
       9915.0656       71.504640       29.950775       1
       9927.7604       63.658861       24.065916       1
       9940.4552       45.046807       25.011211       1
       9953.1500       70.535366       23.922938       1
       9965.8448       61.290202       28.795343       1
       9978.5395       71.381479       28.571671       1
       9991.2343       73.764725       29.315315       1
       10003.929       37.117387       23.297060       1
       10016.624       54.680874       28.673799       1
       10029.319       81.598877       23.373845       1
       10042.013       95.591661       28.812454       1
       10054.708       55.591938       31.211874       1
       10067.403       80.101094       28.441659       1
       10080.098       104.45397       23.046385       1
       10092.793       91.246158       28.332177       1
       10105.487       50.185051       22.476216       1
       10118.182       71.605335       29.464565       1
       10130.877       116.61023       22.974151       1
       10143.572       87.900569       28.196824       1
       10156.267       52.862088       22.445577       1
       10168.961       96.398316       28.056738       1
       10181.656       82.125395       22.495409       1
       10194.351       85.328752       27.804864       1
       10207.046       82.749458       22.355404       1
       10219.740       52.092297       27.390294       1
       10232.435       78.247983       22.117545       1
       10245.130       43.753462       27.013793       1
       10257.825       72.079611       22.041285       1
       10270.520       102.19754       27.567806       1
       10283.214       58.028179       21.530488       1
       10295.909       91.941554       27.000960       1
       10308.604       56.293875       21.399140       1
       10321.299       68.275461       26.437611       1
       10333.994       83.714555       21.410359       1
       10346.688       102.65708       26.441467       1
       10359.383       94.847647       21.249849       1
       10372.078       67.017649       25.993868       1
       10384.773       63.420286       20.736276       1
       10397.467       69.001521       26.104040       1
       10410.162       58.708808       20.772145       1
       10422.857       112.59150       26.207515       1
       10435.552       120.12476       21.220439       1
       10448.247       132.42294       26.301632       1
       10460.941       137.04114       21.299080       1
       10473.636       151.60092       26.536542       1
       10486.331       84.978636       20.758590       1
       10499.026       115.48353       26.020109       1
       10511.721       59.680676       20.489033       1
       10524.415       95.450837       25.743219       1
       10537.110       63.258093       24.560453       1
       10549.805       93.834922       25.674992       1
       10562.500       82.809919       20.619901       1
       10575.194       84.483565       25.468472       1
       10587.889       79.165207       20.641486       1
       10600.584       94.354470       25.748852       1
       10613.279       78.595836       20.596873       1
       10625.974       73.780466       25.544295       1
       10638.668       79.700528       20.564070       1
       10651.363       80.075938       25.540886       1
       10664.058       86.443928       20.592119       1
       10676.753       43.709651       25.060016       1
       10689.448       78.464317       20.382814       1
       10702.142       81.614427       25.178015       1
       10714.837       81.778348       20.188828       1
       10727.532       76.139285       24.819811       1
       10740.227       114.73553       20.289483       1
       10752.921       84.397414       24.707696       1
       10765.616       82.400001       19.911425       1
       10778.311       87.299401       24.647923       1
       10791.006       95.354544       19.946514       1
       10803.701       98.025178       24.672990       1
       10816.395       104.18404       19.965857       1
       10829.090       80.210159       24.560671       1
       10841.785       107.42520       19.970589       1
       10854.480       113.14595       24.774837       1
       10867.175       100.68767       22.506933       1
       10879.869       107.39286       24.725129       1
       10892.564       117.84559       22.693000       1
       10905.259       82.371809       24.369799       1
       10917.954       94.200959       19.680944       1
       10930.648       96.219209       24.305517       1
       10943.343       117.85653       19.759401       1
       10956.038       110.19078       24.385040       1
       10968.733       118.30782       19.539833       1
       10981.428       92.171325       24.024864       1
       10994.122       94.119814       19.467699       1
       11006.817       85.855957       23.924836       1
       11019.512       105.48014       19.422393       1
       11032.207       108.80524       24.125610       1
       11044.901       113.81731       19.555937       1
       11057.596       76.110424       23.834988       1
       11070.291       92.218521       19.403291       1
       11082.986       118.39788       24.311927       1
       11095.681       94.026184       19.369840       1
       11108.375       68.642219       23.842535       1
       11121.070       91.995662       19.339496       1
       11133.765       93.117739       23.984970       1
       11146.460       92.854191       19.325488       1
       11159.155       94.333868       23.672512       1
       11171.849       114.01408       19.417235       1
       11184.544       99.746330       23.892099       1
       11197.239       91.796745       19.253502       1
       11209.934       93.284035       23.810443       0
       11222.628       90.665414       19.192189       0
       11235.323       102.09750       23.987913       0
       11248.018       100.77575       19.412198       0
       11260.713       110.55434       23.853417       0
       11273.408       103.67189       19.364292       0
       11286.102       96.362747       23.904975       0
       11298.797       99.321822       19.301507       0
       11311.492       93.665998       23.916862       0
       11324.187       114.39293       19.435990       0
       11336.882       110.85576       26.951006       0
       11349.576       105.37926       19.278847       0
       11362.271       110.81135       23.974258       0
       11374.966       118.70659       19.442993       0
       11387.661       100.73733       23.919764       0
       11400.355       106.98727       19.325536       0
       11413.050       92.890000       23.802141       0
       11425.745       93.124185       19.222895       0
       11438.440       108.87618       24.107642       0
       11451.135       82.524610       19.565341       0
       11463.829       87.445376       24.923649       0
       11476.524       116.06155       21.177993       0
       11489.219       92.732738       30.747854       0
       11501.914       100.22927       23.588354       0
       11514.609       73.688753       12770797.       0
       11527.303       95.475044       27.954913       0
       11539.998       74.325478       38.605177       0
       11552.693       63.685057       34.528706       0
       11565.388       100.12281       48.905612       0
       11578.082       94.696992       44.650285       0
       11590.777       71.189079       62.147308       0
       11603.472       122.23937       56.570908       0
       11616.167       60.401054       77.039672       0
       11628.862       97.585364       84.566008       0
       11641.556       82.169089       94.399083       0
       11654.251       71.149849       84.864694       0
       11666.946       78.899599       119.22946       0
       11679.641      -48.529561       110.13414       0
       11692.336       45.194586       161.52699       0
       11705.030      -82.309682       156.13405       0
       11717.725      -41.453951       238.99730       0
       11730.420      -9.5435097       238.65312       0
       11743.115      -472.98769       359.28479       0
       11755.809      -89.919041       360.80241       0
       11768.504      -449.51330       536.08277       0
       11781.199      -30.736372       527.98534       0
       11793.894      -171.09914       776.47375       0
       11806.589      -159.78936       784.45601       0
       11819.283      -2610.6161       1201.7226       0
       11831.978      -147.35863       1309.2396       0
       11844.673      -1209.2692       2071.3897       0
       11857.368      -2391.2638       2157.4790       0
       11870.063      -1588.0633       3501.3632       0
       11882.757      -1339.5738       3388.3498       0
       11895.452      -4021.0529       4479.6976       0
       11908.147      -2352.6169       3727.4253       0
       11920.842      -3165.7356       4507.9539       0
       11933.536      -2842.6255       3566.9084       0
       11946.231      -3422.0426       4293.5691       0
       11958.926      -3609.2398       3558.8258       0
       11971.621      -4024.0527       4706.7537       0
       11984.316      -370.51964       4190.8387       0
       11997.010      -6538.5886       5981.8755       0
       12009.705       5323.2884       5830.4379       0
       12022.400      -5778.8739       8495.6189       0
       12035.095      -5792.5839       8022.9654       0
       12047.790      -7146.6477       10978.346       0
       12060.484      -9554.6390       10331.524       0
       12073.179       33.545318       14303.622       0
