#WAVELENGTH FLUX ERROR MASK
       7501.3487      -3598.8283       17855.299       0
       7513.5455       520.55444       18656.511       0
       7525.7423       1470.9423       13358.053       0
       7537.9391       175.95695       13419.165       0
       7550.1359       710.05529       8714.0143       0
       7562.3327      -4048.9048       8538.2934       0
       7574.5295       1729.7506       5390.2880       0
       7586.7263       301.23444       5343.4984       0
       7598.9231       35.494989       3617.8485       0
       7611.1199      -38.526273       3659.7391       0
       7623.3168       277.58616       2570.0235       0
       7635.5136      -299.57643       2772.3974       0
       7647.7104       665.08999       1974.1695       0
       7659.9072       398.40276       2048.1692       0
       7672.1040       6.4923357       1360.3605       0
       7684.3008      -67.481785       1425.1319       0
       7696.4976      -239.76567       946.29897       0
       7708.6944      -47.025513       1008.7415       0
       7720.8912       312.14547       706.73955       0
       7733.0880       103.90672       783.61523       0
       7745.2849       64.491615       575.48585       0
       7757.4817       47.108787       655.33252       0
       7769.6785      -215.93487       477.67740       0
       7781.8753       105.77963       562.02565       0
       7794.0721       46.624970       424.57087       0
       7806.2689       13.472937       457.20232       0
       7818.4657       55.594274       328.45350       0
       7830.6625       71.886328       368.35954       0
       7842.8593       17.881837       264.10979       0
       7855.0562      -2.1342482       297.95431       0
       7867.2530       115.56943       218.42967       0
       7879.4498      -25.580446       250.93581       0
       7891.6466       50.685781       188.31295       0
       7903.8434       39.183573       209.85860       0
       7916.0402       40.012239       178.37571       0
       7928.2370       53.752242       195.55430       0
       7940.4338       33.414654       150.44023       0
       7952.6306       7.3284205       177.85004       0
       7964.8274       14.101409       137.65275       0
       7977.0243       59.886996       164.11537       0
       7989.2211       95.527926       132.81502       0
       8001.4179      -18.764694       146.82134       0
       8013.6147       54.673958       121.82725       0
       8025.8115       38.345499       143.67019       0
       8038.0083      0.47357832       111.67526       0
       8050.2051       122.26514       137.10471       0
       8062.4019       1.2785845       108.78980       0
       8074.5987      -55.576897       131.32412       0
       8086.7955       94.994337       105.17907       0
       8098.9924       72.998292       127.62265       0
       8111.1892       57.210983       113.65171       0
       8123.3860       72.333607       122.95180       0
       8135.5828       16.582130       96.364233       0
       8147.7796       19.190931       118.37111       0
       8159.9764       54.116629       105.40262       1
       8172.1732       49.244535       114.87666       1
       8184.3700       33.926531       89.892709       1
       8196.5668       19.642321       111.35790       1
       8208.7636       24.322762       86.625972       1
       8220.9605      -12.240120       104.11657       1
       8233.1573       19.552358       88.204110       1
       8245.3541       45.338986       100.71674       1
       8257.5509       18.578424       78.379862       1
       8269.7477       43.643489       17377250.       1
       8281.9445       58.034590       74.840752       1
       8294.1413       34.528781       91.861237       1
       8306.3381       7.8128096       71.656076       1
       8318.5349       52.885149       88.271673       1
       8330.7318       29.919627       70.203075       1
       8342.9286       28.578902       85.501978       1
       8355.1254       40.608148       69.771457       1
       8367.3222       48.985872       83.331794       1
       8379.5190       39.006045       66.829207       1
       8391.7158       24.713937       83.116022       1
       8403.9126       44.138283       64.925296       1
       8416.1094       26.311619       78.752189       1
       8428.3062       27.547310       62.103162       1
       8440.5030       21.388289       76.064248       1
       8452.6999       27.208387       60.649529       1
       8464.8967       13.945226       73.953358       1
       8477.0935       32.358267       58.293030       1
       8489.2903       52.188796       72.122462       1
       8501.4871       23.179838       57.598807       1
       8513.6839       39.986627       70.591011       1
       8525.8807       30.255567       55.472378       1
       8538.0775       19.555965       68.822218       1
       8550.2743       46.306593       54.753225       1
       8562.4711       11.180180       67.738343       1
       8574.6680       20.801704       54.069991       1
       8586.8648       9.4537135       65.246060       1
       8599.0616       35.541062       62.454211       1
       8611.2584       27.117261       67.203983       1
       8623.4552       45.349096       55.481966       1
       8635.6520       18.838252       66.467284       1
       8647.8488       40.629513       56.067610       1
       8660.0456       15.215481       65.475480       1
       8672.2424       30.793652       57.548224       1
       8684.4393       53.067119       64.048627       1
       8696.6361       50.358161       53.329848       1
       8708.8329       36.508752       61.509194       1
       8721.0297       36.391327       48.538179       1
       8733.2265       46.361743       59.607887       1
       8745.4233       37.461743       46.955762       1
       8757.6201       36.873375       57.688052       1
       8769.8169       26.986265       46.166614       1
       8782.0137       35.232490       56.337650       1
       8794.2105       38.854877       45.156223       1
       8806.4074       30.674554       55.319874       1
       8818.6042       23.462831       43.928031       1
       8830.8010       26.684172       53.891922       1
       8842.9978       32.463113       45.365845       1
       8855.1946       26.923860       52.809896       1
       8867.3914       31.053698       45.134308       1
       8879.5882       20.685976       51.501550       1
       8891.7850       12.711024       43.920311       1
       8903.9818       17.769712       50.809290       1
       8916.1786       51.012917       46.388887       1
       8928.3755       46.166143       50.309496       1
       8940.5723       27.520998       43.816644       1
       8952.7691       19.190577       51.629669       1
       8964.9659       33.045687       40.352984       1
       8977.1627       36.917298       48.004598       1
       8989.3595       35.336587       38.254522       1
       9001.5563       42.437244       47.568592       1
       9013.7531       28.733958       37.616952       1
       9025.9499       31.371622       45.457092       1
       9038.1468       30.278352       37.467908       1
       9050.3436       45.670272       46.998202       1
       9062.5404       28.654469       37.214575       1
       9074.7372       40.754643       46.350632       1
       9086.9340       29.630105       36.842021       1
       9099.1308       35.013433       8213792.7       1
       9111.3276       30.677284       36.021311       1
       9123.5244       27.609106       43.510905       1
       9135.7212       28.128592       35.280147       1
       9147.9180       14.977839       42.211951       1
       9160.1149       28.527040       36.762004       1
       9172.3117       31.387988       42.951526       1
       9184.5085       32.480025       35.769041       1
       9196.7053       26.679231       42.313562       1
       9208.9021       34.589621       33.897159       1
       9221.0989       16.758963       40.099734       1
       9233.2957       46.200540       32.885538       1
       9245.4925       27.172164       40.587819       1
       9257.6893       26.613238       33.918364       1
       9269.8861       14.652775       40.237282       1
       9282.0830       21.034220       32.461290       1
       9294.2798       22.399787       39.697988       1
       9306.4766       31.822226       32.130958       1
       9318.6734       37.018989       7109217.7       1
       9330.8702       27.052008       33.909269       1
       9343.0670       25.205777       39.164318       1
       9355.2638       28.104876       31.162354       1
       9367.4606       25.205603       38.900363       1
       9379.6574       17.058578       31.347561       1
       9391.8542       12.741063       37.405807       1
       9404.0511       34.796214       30.556951       1
       9416.2479       31.089664       39.479923       1
       9428.4447       21.503566       32.458838       1
       9440.6415       33.901115       40.875676       1
       9452.8383       16.614146       30.083178       1
       9465.0351       10.181276       37.753091       1
       9477.2319       27.912936       29.415892       1
       9489.4287       48.200655       36.860742       1
       9501.6255       23.705104       31.452186       1
       9513.8224       23.388007       35.891531       1
       9526.0192       25.774462       28.762053       1
       9538.2160       22.613247       35.857922       1
       9550.4128       32.268070       28.527457       1
       9562.6096       18.515501       35.523093       1
       9574.8064       23.154730       28.239777       1
       9587.0032       29.908355       36.217985       1
       9599.2000       27.863572       27.936264       1
       9611.3968       25.769908       33.803460       1
       9623.5936       30.088379       27.609637       1
       9635.7905       30.788390       34.628495       1
       9647.9873       25.918372       27.984323       1
       9660.1841       7.1313530       6312682.6       1
       9672.3809       21.248186       28.842880       1
       9684.5777       40.719139       34.214398       1
       9696.7745       26.179057       28.440197       1
       9708.9713       32.043075       33.832720       1
       9721.1681       29.594803       26.960295       1
       9733.3649       34.038102       33.521081       1
       9745.5617       27.549399       28.412174       1
       9757.7586       22.672802       32.968448       1
       9769.9554       34.501369       28.361680       1
       9782.1522       42.271164       32.897427       1
       9794.3490       33.754890       26.586615       1
       9806.5458       25.167215       32.609812       1
       9818.7426       29.263404       26.141825       1
       9830.9394       21.335583       32.351840       1
       9843.1362       22.901896       26.193445       1
       9855.3330       31.349121       35.134326       1
       9867.5299       32.321741       25.962004       1
       9879.7267       38.065724       32.420799       1
       9891.9235       27.964372       26.253831       1
       9904.1203       45.827329       32.218926       1
       9916.3171       37.058280       25.783335       1
       9928.5139       27.216775       31.607583       1
       9940.7107       33.631190       25.827461       1
       9952.9075       19.460538       31.231919       1
       9965.1043       37.085200       25.740015       1
       9977.3011       26.652834       31.070907       1
       9989.4980       35.780870       25.682537       1
       10001.695       36.517368       30.732861       1
       10013.892       28.691034       24.423540       1
       10026.088       31.976037       31.613974       1
       10038.285       34.022181       24.287147       1
       10050.482       9.6439513       31.000309       1
       10062.679       39.443082       24.694294       1
       10074.876       36.633972       30.437425       1
       10087.072       28.120851       24.343201       1
       10099.269       41.957058       30.336141       1
       10111.466       26.963841       24.157836       1
       10123.663       24.367511       30.158097       1
       10135.860       30.347867       24.068859       1
       10148.056       37.631779       30.044643       1
       10160.253       30.803635       23.930251       1
       10172.450       17.106780       29.673987       1
       10184.647       27.214688       23.696321       1
       10196.844       37.369491       29.741625       1
       10209.041       32.049746       25.050205       1
       10221.237       33.632080       29.612041       1
       10233.434       22.555077       23.656856       1
       10245.631       28.505842       29.208452       1
       10257.828       27.475349       23.062099       1
       10270.025       34.688573       28.830240       1
       10282.221       31.950300       24.098571       1
       10294.418       12.615119       27.774299       1
       10306.615       33.328365       22.740756       1
       10318.812       25.805763       28.549641       1
       10331.009       39.768882       23.542590       1
       10343.205       31.759984       28.402947       1
       10355.402       41.501480       23.145750       1
       10367.599       30.255680       28.212936       1
       10379.796       28.484079       22.366295       1
       10391.993       29.071607       28.102298       1
       10404.190       27.438434       22.682024       1
       10416.386       31.250032       28.025258       1
       10428.583       22.095570       22.254111       1
       10440.780       22.761915       27.747649       1
       10452.977       25.546992       23.684561       1
       10465.174       31.469553       27.884435       1
       10477.370       41.826051       22.282885       1
       10489.567       14.208531       27.687664       1
       10501.764       31.833204       25.130398       1
       10513.961       20.826604       27.814529       1
       10526.158       24.245818       22.007968       1
       10538.354       25.569925       27.674348       1
       10550.551       23.062263       22.078884       1
       10562.748       28.975765       27.722382       1
       10574.945       26.379488       22.081353       1
       10587.142       28.835632       27.703382       1
       10599.338       27.517932       21.966606       1
       10611.535       20.467773       27.387098       1
       10623.732       30.768205       21.823927       1
       10635.929       36.353752       27.306270       1
       10648.126       32.910242       21.595480       1
       10660.323       35.825069       27.067894       1
       10672.519       20.688236       21.411573       1
       10684.716       17.270457       26.669438       1
       10696.913       22.066115       21.246267       1
       10709.110       26.537468       26.792290       1
       10721.307       19.668990       21.306362       1
       10733.503       23.747881       26.637908       1
       10745.700       24.874206       21.350702       1
       10757.897       22.634832       27.280158       1
       10770.094       23.536314       21.133878       1
       10782.291       24.098025       26.252192       1
       10794.487       21.939112       21.201077       1
       10806.684       30.205686       26.550814       1
       10818.881       27.131153       21.124299       1
       10831.078       28.312642       26.451927       1
       10843.275       30.821725       21.098383       1
       10855.471       12.745596       26.217822       1
       10867.668       23.734453       20.735007       1
       10879.865       26.612135       26.224966       1
       10892.062       31.173218       20.866981       1
       10904.259       30.999021       26.111268       1
       10916.456       21.298229       21.052612       1
       10928.652       24.156528       26.030184       1
       10940.849       25.757321       21.075052       1
       10953.046       22.496403       26.024741       1
       10965.243       29.029049       21.408667       1
       10977.440       20.678047       25.855833       1
       10989.636       35.701803       20.848492       1
       11001.833       27.885020       26.010715       1
       11014.030       30.350798       20.761195       1
       11026.227       33.428044       25.845986       1
       11038.424       31.850148       20.648109       1
       11050.620       16.198495       25.061932       1
       11062.817       29.685674       22.177111       1
       11075.014       25.731723       25.774610       1
       11087.211       30.273080       20.903148       1
       11099.408       25.963924       25.677084       1
       11111.605       27.789021       20.924921       1
       11123.801       26.866079       25.579750       1
       11135.998       32.308374       20.892041       1
       11148.195       25.543365       25.591376       1
       11160.392       35.228112       20.544880       1
       11172.589       6.0281951       24.684562       1
       11184.785       25.472233       20.465994       1
       11196.982       15.819617       25.392103       1
       11209.179       28.876730       20.435450       0
       11221.376       13.186410       24.706687       0
       11233.573       36.568184       20.715316       0
       11245.769       22.794129       25.474970       0
       11257.966       40.343704       20.421652       0
       11270.163       25.036220       25.475080       0
       11282.360       26.003023       20.304110       0
       11294.557       15.895522       24.689914       0
       11306.753       28.355322       20.576830       0
       11318.950       36.203991       25.557370       0
       11331.147       26.382143       21.265596       0
       11343.344       21.972031       26.229148       0
       11355.541       35.845635       21.933870       0
       11367.738       23.928888       28.139033       0
       11379.934       25.257927       23.810304       0
       11392.131       27.320224       5909377.6       0
       11404.328       12.131173       27.781841       0
       11416.525       2.6257287       37.509332       0
       11428.722       29.742588       34.662890       0
       11440.918       18.819025       48.800912       0
       11453.115       13.450579       44.987118       0
       11465.312       35.267124       62.830509       0
       11477.509       24.451398       60.608402       0
       11489.706       2.4237883       80.076354       0
       11501.902       1.7933545       79.823083       0
       11514.099       20.944611       97.254235       0
       11526.296       7.2167872       86.277356       0
       11538.493       63.273706       122.50940       0
       11550.690      -17.042151       111.22847       0
       11562.886      -46.876236       163.60575       0
       11575.083       31.199705       157.75002       0
       11587.280      -20.789304       240.72923       0
       11599.477       59.765186       239.80441       0
       11611.674       13.249808       369.84309       0
       11623.871       154.86139       367.07359       0
       11636.067       92.312819       558.97109       0
       11648.264       98.869268       541.53920       0
       11660.461      -20.786567       813.03483       0
       11672.658      -221.96778       802.18172       0
       11684.855      -186.94704       1289.0316       0
       11697.051      -394.96646       1340.5050       0
       11709.248      -658.74271       2166.9069       0
       11721.445       410.99398       2286.7042       0
       11733.642      -905.19307       3722.7152       0
       11745.839      -1742.4081       3595.8427       0
       11758.035      -96.417113       4878.3771       0
       11770.232      -1748.8883       3984.4101       0
       11782.429      -2191.5174       4883.9845       0
       11794.626      -2097.4150       3787.4887       0
       11806.823      -74.114587       4657.0658       0
       11819.020      -1110.1665       4100.9227       0
       11831.216      -1509.5881       5113.8394       0
       11843.413      -1314.7899       4742.6620       0
       11855.610      -2768.4175       6716.1102       0
       11867.807      -5578.2842       6458.6063       0
       11880.004      -8889.7171       9473.4894       0
