#WAVELENGTH FLUX ERROR MASK
       10205.405      -307.28460       2875.0359       0
       10228.425       1089.3645       2761.3704       0
       10251.445       554.27206       2302.1238       0
       10274.465       747.99430       2035.9117       0
       10297.484       548.07005       1718.2680       0
       10320.504      -932.66694       1500.8340       0
       10343.524       414.93780       1361.0221       0
       10366.543      -54.524090       1241.1659       0
       10389.563       498.11389       1139.4410       0
       10412.583      -269.13248       1060.1672       0
       10435.603      -52.674281       921.51791       0
       10458.622       129.80168       819.24954       0
       10481.642       187.06840       672.11708       0
       10504.662       257.01176       589.12155       0
       10527.681       176.68327       484.97580       0
       10550.701       80.285837       429.94395       0
       10573.721       173.49924       366.16765       0
       10596.741      -31.117905       335.57123       0
       10619.760       64.756253       292.10183       0
       10642.780       31.831634       271.32853       0
       10665.800       265.67933       237.56264       0
       10688.820       110.67966       212.41773       0
       10711.839       98.815522       176.11136       0
       10734.859       75.666635       151.97098       0
       10757.879       46.099964       122.19793       0
       10780.898       44.313730       104.91784       0
       10803.918       40.746549       86.126268       0
       10826.938       56.341730       77.133507       0
       10849.958       30.228452       65.792915       0
       10872.977       17.375665       61.092528       0
       10895.997       32.418933       54.635635       0
       10919.017       47.408209       52.476542       0
       10942.036      -7.3987807       45.366583       0
       10965.056       26.058052       45.666064       0
       10988.076       20.378096       41.232446       0
       11011.096       18.918462       38.461722       1
       11034.115       31.917377       36.180646       1
       11057.135       10.678334       33.648374       1
       11080.155       34.179995       32.069007       1
       11103.174       17.891711       31.513890       1
       11126.194       23.030083       29.536128       1
       11149.214       27.639298       29.747544       1
       11172.234       34.314228       28.156866       1
       11195.253       27.993601       28.409080       1
       11218.273       19.164989       27.265191       1
       11241.293       16.945626       26.932279       1
       11264.312       31.124708       26.747950       1
       11287.332     -0.17742904       25.445483       1
       11310.352       10.036069       26.131725       1
       11333.372       19.842568       26.838569       1
       11356.391       25.699758       25.763897       1
       11379.411       24.780254       26.360605       1
       11402.431       25.212951       25.321508       1
       11425.451       18.345297       25.904743       1
       11448.470       24.769664       24.944268       1
       11471.490       2.3206690       24.090838       1
       11494.510       30.224427       24.870633       1
       11517.529       19.528157       25.414361       1
       11540.549       30.728735       24.784835       1
       11563.569       22.235073       25.369508       1
       11586.589       32.399196       24.537297       1
       11609.608      -6.1298205       23.434434       1
       11632.628       20.312419       23.996538       1
       11655.648       26.628438       24.527239       1
       11678.667       16.326474       22.881181       1
       11701.687      -6.1523148       22.353702       1
       11724.707       34.851275       23.076837       1
       11747.727       24.703922       22.706308       1
       11770.746       27.045471       22.533121       1
       11793.766       11.080474       22.203468       1
       11816.786       26.702546       21.923879       1
       11839.805       12.735289       21.679889       1
       11862.825       11.591861       20.737627       1
       11885.845       22.243756       21.946334       1
       11908.865       39.543584       21.217685       1
       11931.884       26.228051       21.677429       1
       11954.904       29.422486       20.965658       1
       11977.924       23.505841       21.384817       1
       12000.943       3.8358435       18.788495       1
       12023.963       10.572374       20.320630       1
       12046.983       32.282868       20.316478       1
       12070.003       26.471082       20.790458       1
       12093.022       16.621395       19.508809       1
       12116.042       30.542039       20.601933       1
       12139.062       30.231600       19.873887       1
       12162.082       27.850132       20.271233       1
       12185.101       26.499790       19.480808       1
       12208.121       17.539949       19.860266       1
       12231.141       30.643560       19.423541       1
       12254.160       28.854866       19.786993       1
       12277.180       26.310573       19.151735       1
       12300.200       19.225806       19.427167       1
       12323.220       25.538683       18.521871       1
       12346.239       25.743193       19.382762       1
       12369.259       26.112142       18.775743       1
       12392.279       25.044391       19.182246       1
       12415.298       23.702368       18.625850       1
       12438.318       27.769884       19.045730       1
       12461.338       28.200466       18.512153       1
       12484.358       20.281386       18.795781       1
       12507.377       31.938534       18.391499       1
       12530.397       24.083842       2813163.0       1
       12553.417       22.201509       18.115822       1
       12576.436       23.948700       18.654812       1
       12599.456       28.778196       18.130899       1
       12622.476       24.093694       18.605015       1
       12645.496       28.541838       17.976140       1
       12668.515       31.365763       18.593606       1
       12691.535       33.335000       17.921529       1
       12714.555       25.062357       18.284602       1
       12737.574       26.929369       17.667526       1
       12760.594       17.099742       18.003273       1
       12783.614       33.235586       17.464686       1
       12806.634       24.171146       17.826005       1
       12829.653       19.101040       17.219119       1
       12852.673       29.364470       17.726220       1
       12875.693       34.873445       17.206446       1
       12898.713       31.652435       17.719211       1
       12921.732       25.468810       17.009463       1
       12944.752       24.745578       17.447155       1
       12967.772       36.435645       16.903379       1
       12990.791       20.173733       17.211531       1
       13013.811       30.606243       16.612047       1
       13036.831       28.622970       17.112275       1
       13059.851       27.528322       16.406969       1
       13082.870       31.337151       16.969413       1
       13105.890       28.482817       16.297102       1
       13128.910       22.808148       16.770183       1
       13151.929       26.493201       16.183260       1
       13174.949       25.514207       16.569793       1
       13197.969       24.748762       16.017034       1
       13220.989       24.470575       16.401141       1
       13244.008       25.225798       15.864005       1
       13267.028       27.241354       16.319021       1
       13290.048       25.425589       15.762524       1
       13313.067       26.313161       16.153448       1
       13336.087       30.502384       15.670287       1
       13359.107       26.009476       16.077681       1
       13382.127       25.335743       15.616142       1
       13405.146       25.767134       15.992618       1
       13428.166       19.129166       15.449768       1
       13451.186       21.081009       15.787844       1
       13474.205       9.6200979       14.788365       1
       13497.225       24.186064       15.622971       1
       13520.245       14.913642       14.787347       1
       13543.265       25.633920       15.636883       1
       13566.284       12.613112       14.741940       1
       13589.304       14.587166       15.104605       1
       13612.324       12.285132       14.283535       1
       13635.343       17.120450       15.515413       1
       13658.363       30.467706       15.254645       1
       13681.383       28.879519       15.614008       1
       13704.403       34.434089       15.327101       1
       13727.422       26.429556       15.645989       1
       13750.442       18.528619       14.818956       1
       13773.462       16.738132       15.582694       1
       13796.482       26.872805       15.295925       1
       13819.501       19.561288       15.615513       1
       13842.521       9.7827578       14.680435       1
       13865.541       21.588084       15.535996       1
       13888.560       35.799517       15.288778       1
       13911.580       18.211410       2362028.4       1
       13934.600       25.151051       15.508010       1
       13957.620       17.162495       15.262781       1
       13980.639       30.780138       15.039118       1
       14003.659       16.635428       15.257068       1
       14026.679       24.364844       14.866899       1
       14049.698       25.191722       15.159695       1
       14072.718       27.686323       14.795394       1
       14095.738       17.398398       2282975.6       1
       14118.758       17.553325       14.238304       1
       14141.777       15.841564       14.466268       1
       14164.797       32.461138       14.663824       1
       14187.817       16.058247       14.488539       1
       14210.836       24.473493       14.160271       1
       14233.856       22.011697       14.774452       1
       14256.876       27.352795       14.462391       1
       14279.896       20.834668       14.717068       1
       14302.915       23.290360       14.232077       1
       14325.935       23.798926       14.559823       1
       14348.955       12.280458       13.672077       1
       14371.974       23.538839       14.527497       1
       14394.994       24.811608       14.179967       1
       14418.014       6.5140725       14.045074       1
       14441.034       27.651284       14.200643       1
       14464.053       18.778249       14.410927       1
       14487.073       24.842341       14.121712       1
       14510.093       17.478358       14.419056       1
       14533.113       27.603653       2130545.3       1
       14556.132       22.564371       2129675.9       1
       14579.152       29.923618       14.159312       1
       14602.172       23.797833       14.503129       1
       14625.191       25.265470       14.097135       1
       14648.211       17.116770       14.074364       1
       14671.231       30.793697       14.132043       1
       14694.251       22.665669       14.520307       1
       14717.270       20.199710       13.775087       1
       14740.290       24.410908       14.610692       1
       14763.310       25.790092       14.149686       1
       14786.329       12.617964       14.103395       1
       14809.349       14.799908       13.679773       1
       14832.369       27.530069       14.533595       1
       14855.389       25.447867       2119914.2       1
       14878.408       24.605581       14.264708       1
       14901.428       19.916375       13.537520       1
       14924.448       26.829850       14.304318       1
       14947.467       32.287966       13.789950       1
       14970.487       25.907614       14.224272       1
       14993.507       29.453802       13.730122       1
       15016.527       21.084034       14.135728       1
       15039.546       32.130178       13.656225       1
       15062.566       20.164010       14.114471       1
       15085.586       25.134491       13.823736       1
       15108.605       25.359463       14.131156       1
       15131.625       34.907100       13.856630       1
       15154.645       17.271741       14.229573       1
       15177.665       25.384751       13.630679       1
       15200.684       19.314941       14.015888       1
       15223.704       9.9777533       12.701299       1
       15246.724       20.954235       13.937294       1
       15269.744       25.250447       13.489912       1
       15292.763       18.370547       13.927940       1
       15315.783       15.109214       13.140097       1
       15338.803       26.719940       13.892467       1
       15361.822       26.238777       2053623.4       1
       15384.842      -7.1522144       13.011232       1
       15407.862       32.046417       13.598547       1
       15430.882       22.872949       14.007596       1
       15453.901       26.118817       13.642910       1
       15476.921       22.316167       14.007097       1
       15499.941       27.030904       13.530117       1
       15522.960       14.074066       13.567815       1
       15545.980       25.383260       13.628257       1
       15569.000       16.271123       2064987.2       1
       15592.020       21.298382       13.641933       1
       15615.039       16.770557       2063901.7       1
       15638.059       12.159512       13.220496       1
       15661.079       23.942066       13.882553       1
       15684.098       21.815650       13.222350       1
       15707.118       17.758197       13.793673       1
       15730.138       29.214449       13.609832       1
       15753.158       15.915589       13.733985       1
       15776.177       17.935411       13.423589       1
       15799.197       22.075400       13.758487       1
       15822.217       23.709210       13.391645       1
       15845.236       15.955508       13.637610       1
       15868.256       23.239019       13.403443       1
       15891.276       11.328470       13.333786       1
       15914.296       16.515822       13.429789       1
       15937.315       16.638232       13.719687       1
       15960.335       21.582309       13.518555       1
       15983.355       27.046302       13.785600       1
       16006.375       29.252531       13.606322       1
       16029.394       11.027962       13.372403       1
       16052.414       21.057486       13.531683       1
       16075.434       21.734196       13.814029       1
       16098.453       20.649445       13.545461       1
       16121.473       12.020386       2125246.6       1
       16144.493       32.004803       13.604030       1
       16167.513       15.402780       13.991087       1
       16190.532       7.6713754       12.892263       1
       16213.552       19.931462       14.235818       1
       16236.572       12.590009       12.988399       1
       16259.591       19.197785       14.093565       1
       16282.611       31.831422       13.793462       1
       16305.631       21.172075       14.111181       1
       16328.651       17.370904       2187214.4       1
       16351.670       6.4000400       13.712299       1
       16374.690       16.691123       13.785474       1
       16397.710       17.960076       14.212573       1
       16420.729       18.969712       13.814725       1
       16443.749       18.121374       14.261364       1
       16466.769       18.554241       13.926840       1
       16489.789       13.843344       14.443445       1
       16512.808       11.423322       14.270037       1
       16535.828       13.819012       15.183359       1
       16558.848       20.558578       15.250595       1
       16581.867       18.709928       16.682472       1
       16604.887       32.888623       17.059408       1
       16627.907       12.120101       18.622036       1
       16650.927       8.4039035       19.017829       1
       16673.946       17.976448       22.213563       1
       16696.966       24.843641       23.906590       1
       16719.986       1.6730230       27.410332       1
       16743.006       29.017738       30.206964       1
       16766.025       10.933977       35.656718       0
       16789.045       26.708810       38.940797       0
       16812.065       10.303244       45.979508       0
       16835.084       44.043212       50.915020       0
       16858.104      0.38391305       58.207807       0
       16881.124       39.008415       63.288130       0
       16904.144       2.0555392       73.688338       0
       16927.163       24.889602       78.489984       0
       16950.183       11.297137       91.231808       0
       16973.203       45.856584       97.794244       0
       16996.222       8.7685207       112.72355       0
       17019.242       21.502927       120.34628       0
       17042.262      -27.764075       138.18219       0
       17065.282       6.1216508       148.43095       0
       17088.301      -37.515756       170.55824       0
       17111.321       32.867897       181.35731       0
       17134.341       49.681856       221.34784       0
       17157.360       82.116861       246.69587       0
       17180.380       37.277182       292.34029       0
       17203.400      -97.273583       315.81136       0
       17226.420       168.77916       380.49293       0
       17249.439       239.16121       413.58143       0
       17272.459      -113.89476       456.11785       0
       17295.479       183.25287       512.24081       0
       17318.498      -20.064711       573.42623       0
       17341.518       50.920969       617.91273       0
       17364.538       24.174383       712.83969       0
