#WAVELENGTH FLUX ERROR MASK
       7497.9723       3220.2538       23200.210       0
       7510.1303       6206.9337       15446.991       0
       7522.2884       4389.3371       16446.694       0
       7534.4465       6358.0975       11211.747       0
       7546.6045      -408.66502       11361.136       0
       7558.7626       6556.8805       7230.8894       0
       7570.9207       604.05333       7102.1844       0
       7583.0788       1046.8615       4532.6366       0
       7595.2368       472.54462       4656.8099       0
       7607.3949       421.51877       3127.4294       0
       7619.5530      -389.11745       3303.5997       0
       7631.7110       251.29442       2286.8930       0
       7643.8691      -1467.4530       2449.0465       0
       7656.0272       209.80635       1691.7056       0
       7668.1852       869.00397       1784.4016       0
       7680.3433       542.15212       1192.2900       0
       7692.5014      -1138.7319       1236.5383       0
       7704.6594       286.50522       836.73843       0
       7716.8175       214.04620       911.37909       0
       7728.9756       795.99652       680.66837       0
       7741.1336       1002.9238       733.42514       0
       7753.2917       63.170802       558.24465       0
       7765.4498      -18.402356       607.90451       0
       7777.6078       139.68676       477.94331       0
       7789.7659       604.53292       519.96830       0
       7801.9240      -123.61955       372.42124       0
       7814.0821       167.01892       424.72085       0
       7826.2401       49.263855       302.26492       0
       7838.3982       36.702503       339.58775       0
       7850.5563      -91.763594       243.72516       0
       7862.7143      -180.51947       273.86642       0
       7874.8724      -119.63714       254.85218       0
       7887.0305       1.6299999       235.56574       0
       7899.1885       49.299009       186.86956       0
       7911.3466      -23.766183       206.34222       0
       7923.5047      -54.862363       166.39370       0
       7935.6627      -140.51435       185.81338       0
       7947.8208      -25.140902       142.40787       0
       7959.9789       18.231855       170.56241       0
       7972.1369      -37.748540       129.74917       0
       7984.2950       3.3506338       157.81920       0
       7996.4531       178.53029       121.94136       0
       8008.6112      -34.677638       146.09501       0
       8020.7692       102.97302       114.73147       0
       8032.9273      -59.929371       138.05162       0
       8045.0854       61.486878       108.69258       0
       8057.2434       23.903951       133.15116       0
       8069.4015      -31.052006       104.06115       0
       8081.5596       36.177305       127.98522       0
       8093.7176       94.666501       100.88939       0
       8105.8757       59.872862       124.01765       0
       8118.0338       66.280321       97.638236       0
       8130.1918       130.83428       120.52496       0
       8142.3499       30.808357       94.078133       0
       8154.5080      -1.4706714       114.90968       1
       8166.6660       85.514677       91.411817       1
       8178.8241      -13.138623       111.73152       1
       8190.9822      -3.1160379       87.120078       1
       8203.1402       106.01677       108.57476       1
       8215.2983      -26.544539       83.779641       1
       8227.4564       98.587821       104.02827       1
       8239.6145       82.700338       80.461694       1
       8251.7725      -7.6808289       108.88033       1
       8263.9306       49.425577       76.269865       1
       8276.0887       60.040612       93.391998       1
       8288.2467       68.154622       73.079697       1
       8300.4048       79.889939       89.672623       1
       8312.5629       52.218092       69.818455       1
       8324.7209       96.420750       86.237964       1
       8336.8790       32.634247       67.191845       1
       8349.0371       63.879751       83.219543       1
       8361.1951       98.418381       66.069082       1
       8373.3532       39.589696       81.305552       1
       8385.5113       76.528084       64.200813       1
       8397.6693       35.175717       78.255845       1
       8409.8274       42.631320       62.109372       1
       8421.9855       43.472805       76.859199       1
       8434.1435       21.666223       60.149434       1
       8446.3016       29.693040       74.375616       1
       8458.4597       85.203174       58.653794       1
       8470.6178       59.368949       72.499874       1
       8482.7758       65.461425       56.595055       1
       8494.9339       29.828090       70.252493       1
       8507.0920      -3.4622392       54.906959       1
       8519.2500       45.155932       68.620820       1
       8531.4081       61.951383       57.605920       1
       8543.5662       59.159080       67.507837       1
       8555.7242       115.33166       65.379689       1
       8567.8823       66.028861       66.865604       1
       8580.0404       44.173761       52.999556       1
       8592.1984       30.492926       66.033078       1
       8604.3565       43.481734       52.698919       1
       8616.5146       12.741173       65.678083       1
       8628.6726       6.9682877       52.287280       1
       8640.8307       52.467854       65.221731       1
       8652.9888       35.066591       51.810258       1
       8665.1469       34.772032       63.587587       1
       8677.3049       91.389399       50.928854       1
       8689.4630       41.639352       62.345501       1
       8701.6211       45.246486       51.298274       1
       8713.7791       50.820377       60.344494       1
       8725.9372       74.226984       49.858974       1
       8738.0953       72.861464       58.292293       1
       8750.2533       42.766116       48.438841       1
       8762.4114       60.996184       56.803660       1
       8774.5695       53.624269       44.797632       1
       8786.7275       27.609413       55.530963       1
       8798.8856       71.666528       44.345375       1
       8811.0437       51.801310       64.017204       1
       8823.2017       82.333270       46.457707       1
       8835.3598       53.185861       62.648420       1
       8847.5179       30.818623       42.027758       1
       8859.6759       74.980583       52.814104       1
       8871.8340       74.461745       41.724314       1
       8883.9921       62.514896       51.476813       1
       8896.1502       76.590974       40.855783       1
       8908.3082       78.503949       50.945687       1
       8920.4663       69.138538       40.356961       1
       8932.6244       60.448393       50.009945       1
       8944.7824       47.173677       39.461802       1
       8956.9405       47.612051       48.966210       1
       8969.0986       77.660132       38.928315       1
       8981.2566       113.33852       48.351224       1
       8993.4147       69.849374       38.016705       1
       9005.5728       52.938385       47.157603       1
       9017.7308       96.235178       43.174618       1
       9029.8889       60.064339       46.880130       1
       9042.0470       76.015814       39.253888       1
       9054.2050       48.504088       46.355831       1
       9066.3631       86.381820       38.907161       1
       9078.5212       78.579958       46.376386       1
       9090.6792       91.820759       36.825924       1
       9102.8373       108.42530       45.750059       1
       9114.9954       92.385533       36.126972       1
       9127.1535       114.77667       44.674011       1
       9139.3115       105.80093       35.413975       1
       9151.4696       115.22991       43.970167       1
       9163.6277       53.014172       35.791675       1
       9175.7857       104.46982       43.078734       1
       9187.9438       74.452151       33.913789       1
       9200.1019       74.339944       41.931840       1
       9212.2599       100.97275       33.502752       1
       9224.4180       57.405666       41.129151       1
       9236.5761       105.42413       33.071259       1
       9248.7341       103.64711       41.057797       1
       9260.8922       81.756642       38.114453       1
       9273.0503       91.268111       40.629284       1
       9285.2083       99.500172       32.259825       1
       9297.3664       81.076887       12105682.       1
       9309.5245       85.920391       31.742496       1
       9321.6826       84.368977       39.704433       1
       9333.8406       72.173833       31.518259       1
       9345.9987       74.352074       39.317301       1
       9358.1568       77.224469       32.455939       1
       9370.3148       40.750353       35.309384       1
       9382.4729       67.634925       35.269006       1
       9394.6310       87.413941       38.779945       1
       9406.7890       85.146791       30.683559       1
       9418.9471       101.66144       38.093498       1
       9431.1052       107.40624       30.539850       1
       9443.2632       96.349484       37.638178       1
       9455.4213       122.72430       30.034830       1
       9467.5794       102.18667       37.320686       1
       9479.7374       107.35743       29.583232       1
       9491.8955       92.016946       36.990792       1
       9504.0536       110.94940       35.632067       1
       9516.2116       146.24193       36.694301       1
       9528.3697       92.385294       28.928921       1
       9540.5278       105.96789       36.153476       1
       9552.6859       133.02186       28.852949       1
       9564.8439       120.12896       35.910302       1
       9577.0020       104.15395       30.259992       1
       9589.1601       115.11762       35.186943       1
       9601.3181       126.62043       28.262805       1
       9613.4762       99.949627       34.907443       1
       9625.6343       98.237702       27.737606       1
       9637.7923       91.505900       34.590388       1
       9649.9504       123.48723       29.337121       1
       9662.1085       114.10932       34.615041       1
       9674.2665       83.223768       27.344230       1
       9686.4246       97.832123       33.929453       1
       9698.5827       93.574533       27.204459       1
       9710.7407       85.928846       33.385533       1
       9722.8988       94.198105       26.914444       1
       9735.0569       105.57963       33.527215       1
       9747.2149       120.18935       26.884032       1
       9759.3730       109.64627       33.328605       1
       9771.5311       113.99781       26.562500       1
       9783.6892       112.42525       33.149165       1
       9795.8472       124.16401       26.344148       1
       9808.0053       95.213814       32.893986       1
       9820.1634       106.46898       26.230919       1
       9832.3214       108.27467       32.729505       1
       9844.4795       99.517817       26.119054       1
       9856.6376       120.02497       32.760864       1
       9868.7956       102.64243       26.046736       1
       9880.9537       114.73388       32.674607       1
       9893.1118       95.006530       32.696267       1
       9905.2698       94.967849       32.466110       1
       9917.4279       121.93026       25.823671       1
       9929.5860       103.64255       31.938629       1
       9941.7440       115.55744       25.675764       1
       9953.9021       103.09266       31.416687       1
       9966.0602       127.76929       26.646917       1
       9978.2183       65.262472       28.890952       1
       9990.3763       136.48365       26.089316       1
       10002.534       101.27821       30.905705       1
       10014.692       123.89834       24.751520       1
       10026.851       99.684084       30.598037       1
       10039.009       125.97521       24.633755       1
       10051.167       91.599871       30.324776       1
       10063.325       118.42782       24.570842       1
       10075.483       107.48907       30.730585       1
       10087.641       114.88196       24.538475       1
       10099.799       136.05437       30.812367       1
       10111.957       123.40467       24.532573       1
       10124.115       113.28390       30.413568       1
       10136.273       100.15071       24.199915       1
       10148.431       100.69309       30.171788       1
       10160.589       102.09790       24.123019       1
       10172.747       111.74640       30.043841       1
       10184.905       101.19342       23.913602       1
       10197.063       99.584564       29.743255       1
       10209.222       108.79905       23.795551       1
       10221.380       100.46004       29.577316       1
       10233.538       118.25633       23.638750       1
       10245.696       82.866368       29.259733       1
       10257.854       115.00125       23.439738       1
       10270.012       105.95495       28.775469       1
       10282.170       109.18971       23.389273       1
       10294.328       127.19779       28.985240       1
       10306.486       117.00883       22.982845       1
       10318.644       108.33050       28.651819       1
       10330.802       118.05611       22.791757       1
       10342.960       116.71042       28.546319       1
       10355.118       109.54899       22.600441       1
       10367.276       118.86248       28.288001       1
       10379.435       119.63488       26.575530       1
       10391.593       98.293772       28.153820       1
       10403.751       103.49355       22.453251       1
       10415.909       109.60047       28.476707       1
       10428.067       114.98120       22.512198       1
       10440.225       116.84821       28.327267       1
       10452.383       117.48981       22.367076       1
       10464.541       102.31790       27.784745       1
       10476.699       128.03433       22.458991       1
       10488.857       108.89999       28.056502       1
       10501.015       110.80598       22.331579       1
       10513.173       108.06152       27.827435       1
       10525.331       113.23531       22.422732       1
       10537.489       96.754304       27.920457       1
       10549.647       125.99337       23.615587       1
       10561.806       106.41490       27.890271       1
       10573.964       110.93203       28.200173       1
       10586.122       91.666489       27.877609       1
       10598.280       115.18765       23.644652       1
       10610.438       101.55360       27.623343       1
       10622.596       113.70872       22.165451       1
       10634.754       109.88919       27.432060       1
       10646.912       124.27114       21.842723       1
       10659.070       107.04024       27.242743       1
       10671.228       105.40950       21.657379       1
       10683.386       119.39451       27.113733       1
       10695.544       120.96238       27.337348       1
       10707.702       107.13156       27.017143       1
       10719.860       108.40192       21.548068       1
       10732.018       105.75892       27.022317       1
       10744.177       109.87697       21.571655       1
       10756.335       59.540595       22.845117       1
       10768.493       104.83012       21.499419       1
       10780.651       106.53525       26.885967       1
       10792.809       114.99668       21.503725       1
       10804.967       80.282608       26.386446       1
       10817.125       125.54348       21.619308       1
       10829.283       104.52303       26.728998       1
       10841.441       110.39586       21.327498       1
       10853.599       117.20237       26.833289       1
       10865.757       125.33721       21.336451       1
       10877.915       102.98547       26.350466       1
       10890.073       113.17206       21.020047       1
       10902.231       113.35524       26.365113       1
       10914.390       108.68465       21.883991       1
       10926.548       93.441247       26.099679       1
       10938.706       106.89862       21.864989       1
       10950.864       95.241365       26.185472       1
       10963.022       94.821585       21.101121       1
       10975.180       110.83647       26.250911       1
       10987.338       93.246200       20.899093       1
       10999.496       94.130413       26.249595       1
       11011.654       97.823069       21.797526       1
       11023.812       95.822888       26.202139       1
       11035.970       101.29053       20.970994       1
       11048.128       88.021432       25.869341       1
       11060.286       101.28029       20.862250       1
       11072.444       104.66708       26.080523       1
       11084.602       100.47298       20.798613       1
       11096.761       85.652563       25.929218       1
       11108.919       97.527836       20.912279       1
       11121.077       87.721185       26.064136       1
       11133.235       86.752276       20.744628       1
       11145.393       115.76761       26.201054       1
       11157.551       104.80745       20.953795       1
       11169.709       104.48065       26.040530       1
       11181.867       81.678321       20.899885       1
       11194.025       92.058048       26.111810       1
       11206.183       103.57965       20.919537       0
       11218.341       86.895321       25.956452       0
       11230.499       104.52292       20.835943       0
       11242.657       106.54079       25.966854       0
       11254.815       105.74435       20.711975       0
       11266.974       108.05165       25.935842       0
       11279.132       108.04615       20.695646       0
       11291.290       98.470508       25.818185       0
       11303.448       113.30228       20.665876       0
       11315.606       90.746396       25.694388       0
       11327.764       122.70416       20.845395       0
       11339.922       100.38920       26.255337       0
       11352.080       109.56574       21.673115       0
       11364.238       96.374007       28.260013       0
       11376.396       77.716466       23.562181       0
       11388.554       100.65225       31.722251       0
       11400.712       79.515304       33.390823       0
       11412.870       90.142205       37.568958       0
       11425.028       70.894801       33.755662       0
       11437.186       61.937463       47.476402       0
       11449.345       67.296909       43.110867       0
       11461.503       41.924863       61.301631       0
       11473.661       64.382669       55.167114       0
       11485.819       87.511510       77.671756       0
       11497.977       21.402037       68.314078       0
       11510.135       37.452362       94.689273       0
       11522.293       39.603483       83.875782       0
       11534.451       98.076204       118.79740       0
       11546.609       58.640832       108.26718       0
       11558.767       76.331178       157.60665       0
       11570.925       66.372755       161.45203       0
       11583.083       162.30499       230.97681       0
       11595.241       42.382273       228.18449       0
       11607.399       31.858328       353.03179       0
       11619.558      -91.212652       348.54238       0
       11631.716       311.93919       536.39208       0
       11643.874      -5.3948859       517.73395       0
       11656.032       689.08672       786.37828       0
       11668.190      -744.63889       757.87400       0
       11680.348      -853.78147       1222.1121       0
       11692.506       525.75781       1286.1487       0
       11704.664       213.07427       2059.1983       0
       11716.822      -310.56165       2200.1536       0
       11728.980       1996.6019       3546.2605       0
       11741.138      -1070.8943       3441.9380       0
       11753.296      -1088.1533       4782.5375       0
       11765.454       1120.0590       3983.1410       0
       11777.612      -2727.7979       4880.7605       0
       11789.770      -1303.7172       3813.5211       0
       11801.929      -512.77033       4625.4490       0
       11814.087       166.28389       3779.4654       0
       11826.245      -4593.8057       4997.9268       0
       11838.403      -16.125361       4458.5274       0
       11850.561       3958.3564       6550.8697       0
       11862.719      -374.13309       7008.8946       0
