#WAVELENGTH FLUX ERROR MASK
       10213.423       1357.9917       2953.7841       0
       10236.393       83.965221       2625.2774       0
       10259.363       1030.5773       2197.4893       0
       10282.333       681.52986       1835.6031       0
       10305.302       569.16141       1643.2063       0
       10328.272      -318.95225       1484.3259       0
       10351.242       414.28166       1307.3389       0
       10374.212       466.81273       1235.4381       0
       10397.181       685.61807       1093.1188       0
       10420.151       360.80487       1011.9681       0
       10443.121       192.96881   1.9745650e+08       0
       10466.091       44.134791       759.25886       0
       10489.060       932.89489       634.87792       0
       10512.030       174.01900       539.13278       0
       10535.000       269.73417       452.21678       0
       10557.970       251.84900       401.29181       0
       10580.939       331.33048       345.19923       0
       10603.909       471.44565       318.00579       0
       10626.879       301.24866       277.28447       0
       10649.849       173.67870       254.86214       0
       10672.818       218.68493       219.62304       0
       10695.788       200.46161       195.34053       0
       10718.758       240.33830       162.84535       0
       10741.728       138.51175       130.92230       0
       10764.697       189.48135       113.20589       0
       10787.667       90.684258       95.727417       0
       10810.637       150.56617       80.506732       0
       10833.607       124.94120       71.367801       0
       10856.576       139.60528       62.049731       0
       10879.546       80.490032       56.598680       0
       10902.516       98.592040       48.757356       0
       10925.486       103.57796       49.419820       0
       10948.455       99.937464       41.979001       0
       10971.425       88.896481       43.028048       0
       10994.395       89.370392       39.251588       0
       11017.365       51.378503       37.056124       1
       11040.334       75.279400       33.745729       1
       11063.304       72.245153       32.913414       1
       11086.274       75.184556       30.332666       1
       11109.243       76.752323       29.783859       1
       11132.213       71.632441       27.991727       1
       11155.183       67.324837       27.914281       1
       11178.153       77.836542       26.775660       1
       11201.122       80.147124       26.934788       1
       11224.092       87.784849       26.189467       1
       11247.062       72.174266       26.381702       1
       11270.032       74.363979       25.421639       1
       11293.001       76.687172       25.909173       1
       11315.971       82.051044       25.046493       1
       11338.941       72.524337       25.171149       1
       11361.911       77.931063       24.399927       1
       11384.880       70.524360       24.671474       1
       11407.850       80.614206       24.066156       1
       11430.820       65.937829       24.243855       1
       11453.790       71.238036       23.691496       1
       11476.759       66.952871       22.751366       1
       11499.729       89.563249       23.525737       1
       11522.699       56.101744       21.017976       1
       11545.669       90.184135       23.462051       1
       11568.638       48.579704       20.718956       1
       11591.608       90.413840       23.158101       1
       11614.578       61.289949       22.040517       1
       11637.548       71.632919       21.425498       1
       11660.517       59.868158       21.621739       1
       11683.487       77.312950       22.195558       1
       11706.457       72.139599       22.424866       1
       11729.427       88.661888       21.756889       1
       11752.396       67.832006       21.864852       1
       11775.366       79.053720       21.442369       1
       11798.336       70.520245       21.513028       1
       11821.306       83.110361       20.975119       1
       11844.275       68.185208       21.077485       1
       11867.245       74.734362       20.341399       1
       11890.215       81.268495       20.813170       1
       11913.185       74.795937       20.134159       1
       11936.154       74.593188       20.517341       1
       11959.124       67.559418       19.793352       1
       11982.094       69.775000       20.180387       1
       12005.064       69.141789       18.413341       1
       12028.033       69.237456       19.811731       1
       12051.003       82.884455       19.366702       1
       12073.973       62.699524       19.551535       1
       12096.943       84.630771       19.210297       1
       12119.912       59.572559       19.268173       1
       12142.882       67.040791       18.724437       1
       12165.852       66.469335       19.127298       1
       12188.822       77.926946       18.598581       1
       12211.791       55.593810       18.767966       1
       12234.761       68.139037       18.310015       1
       12257.731       64.137045       18.677492       1
       12280.700       71.368467       18.166984       1
       12303.670       63.283143       18.454315       1
       12326.640       62.035095       17.870450       1
       12349.610       68.508824       18.369396       1
       12372.579       69.576029       17.813589       1
       12395.549       58.329244       18.078749       1
       12418.519       63.819388       17.756017       1
       12441.489       63.944448       17.912944       1
       12464.458       72.824541       17.653639       1
       12487.428       68.360427       17.890195       1
       12510.398       72.608772       17.306270       1
       12533.368       60.918027       17.725669       1
       12556.337       66.762650       17.129811       1
       12579.307       59.191078       17.554230       1
       12602.277       67.924836       17.004304       1
       12625.247       59.964185       17.495922       1
       12648.216       61.401193       16.847253       1
       12671.186       58.453303       17.394287       1
       12694.156       56.968585       16.730293       1
       12717.126       45.476821       17.043715       1
       12740.095       64.346791       16.550254       1
       12763.065       48.157558       16.687076       1
       12786.035       57.718649       16.232031       1
       12809.005       49.220801       16.624973       1
       12831.974       63.500854       16.134308       1
       12854.944       53.536604       16.573076       1
       12877.914       56.117931       15.094735       1
       12900.884       56.903480       16.486353       1
       12923.853       67.378173       16.009060       1
       12946.823       64.336195       16.338127       1
       12969.793       62.684254       15.745274       1
       12992.763       53.698265       15.957871       1
       13015.732       59.779631       15.533341       1
       13038.702       57.086368       15.876200       1
       13061.672       62.931555       15.301970       1
       13084.642       54.276764       15.730336       1
       13107.611       45.607132       14.213304       1
       13130.581       53.044284       15.668914       1
       13153.551       62.121465       15.035568       1
       13176.521       48.647370       14.606972       1
       13199.490       52.348189       14.787316       1
       13222.460       56.346634       15.269561       1
       13245.430       57.149707       14.741784       1
       13268.400       56.274951       15.203538       1
       13291.369       50.554849       14.623746       1
       13314.339       55.738992       15.157769       1
       13337.309       62.037904       14.621070       1
       13360.278       57.077447       15.050955       1
       13383.248       55.431847       14.483081       1
       13406.218       58.497842       14.935076       1
       13429.188       44.516816       13.490330       1
       13452.157       40.581969       13.734147       1
       13475.127       58.228683       14.214308       1
       13498.097       52.360603       14.594857       1
       13521.067       44.053416       13.982138       1
       13544.036       55.510855       14.588864       1
       13567.006       47.150345       13.181007       1
       13589.976       45.809937       14.482635       1
       13612.946       45.282318       13.157836       1
       13635.915       55.777138       14.495569       1
       13658.885       61.390383       14.025817       1
       13681.855       58.145089       14.432978       1
       13704.825       52.006627       13.949848       1
       13727.794       55.797368       14.514909       1
       13750.764       65.976473       14.212099       1
       13773.734       59.745337       14.639001       1
       13796.704       60.997617       14.090777       1
       13819.673       43.479671       13.666259       1
       13842.643       61.580256       14.029577       1
       13865.613       57.250999       14.532944       1
       13888.583       58.271620       14.014376       1
       13911.552       48.011397       14.372618       1
       13934.522       58.457628       14.022804       1
       13957.492       40.832370       13.455382       1
       13980.462       55.591644       13.858193       1
       14003.431       56.832404       14.277525       1
       14026.401       58.415330       13.772383       1
       14049.371       55.274566       13.988441       1
       14072.341       57.958824       13.642776       1
       14095.310       50.162061       13.956128       1
       14118.280       50.574666       12.686586       1
       14141.250       55.644022       13.947592       1
       14164.220       49.337430       13.412392       1
       14187.189       52.683433       13.891550       1
       14210.159       58.844922       13.359015       1
       14233.129       54.434100       13.836711       1
       14256.099       53.484659       13.312811       1
       14279.068       42.763352       13.508869       1
       14302.038       54.768204       13.253355       1
       14325.008       41.173557       12.769408       1
       14347.978       55.565655       13.122680       1
       14370.947       46.550769       13.476594       1
       14393.917       55.886822       13.087207       1
       14416.887       53.766197       13.460781       1
       14439.856       58.387083       13.022158       1
       14462.826       52.037186       13.523004       1
       14485.796       38.500262       11.519007       1
       14508.766       45.124576       13.376279       1
       14531.735       49.996457       12.990217       1
       14554.705       50.190331       13.484738       1
       14577.675       61.489126       13.074575       1
       14600.645       55.364630       13.530336       1
       14623.614       51.374492       2937907.4       1
       14646.584       44.239197       12.747044       1
       14669.554       51.196807       12.982822       1
       14692.524       46.259722       13.461162       1
       14715.493       46.374897       13.035138       1
       14738.463       48.987111       13.433428       1
       14761.433       46.845919       13.029844       1
       14784.403       45.248423       12.781309       1
       14807.372       52.940620       13.095850       1
       14830.342       45.458865       13.590063       1
       14853.312       44.314262       12.951690       1
       14876.282       51.135957       13.420018       1
       14899.251       41.647723       12.781906       1
       14922.221       45.217667       13.276001       1
       14945.191       37.047121       12.073767       1
       14968.161       45.974084       13.216804       1
       14991.130       47.355575       12.706444       1
       15014.100       48.933554       13.121909       1
       15037.070       51.113039       12.762120       1
       15060.040       45.548147       13.116853       1
       15083.009       53.191122       12.753087       1
       15105.979       50.280547       13.118578       1
       15128.949       42.772167       12.695515       1
       15151.919       47.630645       12.994647       1
       15174.888       50.004878       12.699461       1
       15197.858       46.289843       13.014386       1
       15220.828       42.433180       12.611236       1
       15243.798       42.335984       12.882429       1
       15266.767       41.719622       12.553194       1
       15289.737       45.468454       12.978211       1
       15312.707       43.822309       12.550803       1
       15335.677       40.627719       2831015.4       1
       15358.646       46.957223       12.658082       1
       15381.616       40.808006       12.961602       1
       15404.586       41.138435       12.590911       1
       15427.556       43.506663       13.003956       1
       15450.525       46.402506       12.671921       1
       15473.495       35.825157       12.913315       1
       15496.465       48.667107       2848026.1       1
       15519.434       47.090085       13.066170       1
       15542.404       51.826144       12.779177       1
       15565.374       57.527728       13.184428       1
       15588.344       45.693109       12.715221       1
       15611.313       41.537589       13.552515       1
       15634.283       48.011031       12.696321       1
       15657.253       47.071668       12.936653       1
       15680.223       44.390437       12.607678       1
       15703.192       39.473439       12.189752       1
       15726.162       35.124690       12.488499       1
       15749.132       42.377139       12.835143       1
       15772.102       48.548045       12.563006       1
       15795.071       49.426690       12.871464       1
       15818.041       49.250706       12.497713       1
       15841.011       48.834687       12.900686       1
       15863.981       42.978551       12.484125       1
       15886.950       42.171795       12.869601       1
       15909.920       48.621941       12.591677       1
       15932.890       38.659459       12.801243       1
       15955.860       45.141712       12.574135       1
       15978.829       36.287452       12.153639       1
       16001.799       44.508683       12.599166       1
       16024.769       40.811503       12.930271       1
       16047.739       44.630225       12.603241       1
       16070.708       44.265198       12.932812       1
       16093.678       47.835451       12.562740       1
       16116.648       32.429609       12.140777       1
       16139.618       43.847809       12.833971       1
       16162.587       42.851932       12.998347       1
       16185.557       41.650815       12.924243       1
       16208.527       40.951679       13.083718       1
       16231.497       51.615958       12.907839       1
       16254.466       54.364294       13.353964       1
       16277.436       44.995967       12.843533       1
       16300.406       52.724721       13.352735       1
       16323.376       43.191154       12.966895       1
       16346.345       37.317660       13.245183       1
       16369.315       48.650330       13.037981       1
       16392.285       52.362756       13.430802       1
       16415.255       36.762718       12.963372       1
       16438.224       52.581769       13.487737       1
       16461.194       53.390634       13.211272       1
       16484.164       43.859117       13.630149       1
       16507.134       38.590318       13.346427       1
       16530.103       39.679462       14.032467       1
       16553.073       44.440764       14.115061       1
       16576.043       44.609230       15.138418       1
       16599.012       52.392577       15.685825       1
       16621.982       40.301680       16.887347       1
       16644.952       47.574538       17.689500       1
       16667.922       50.373731       19.753865       1
       16690.891       56.294369       21.199356       1
       16713.861       34.559759       23.966523       1
       16736.831       40.267002       26.283616       1
       16759.801       48.134282       30.537326       0
       16782.770       56.754529       33.997720       0
       16805.740       51.723411       39.754400       0
       16828.710       71.426809       44.161351       0
       16851.680       34.980288       47.806818       0
       16874.649       20.735340       55.307009       0
       16897.619       58.315926       63.969692       0
       16920.589       52.136964       69.200292       0
       16943.559       74.793861       79.397260       0
       16966.528       35.187458       85.865244       0
       16989.498       52.730674       98.773734       0
       17012.468       69.868782       101.29898       0
       17035.438       38.987933       122.29821       0
       17058.407       86.450613       132.08985       0
       17081.377       96.721515       150.74387       0
       17104.347       84.344627       163.72863       0
       17127.317       61.177451       192.76256       0
       17150.286       69.163936       212.84717       0
       17173.256       7.9414301       250.21489       0
       17196.226       69.978231       281.14466       0
       17219.196       95.819171       331.34814       0
       17242.165       51.621762       342.09458       0
       17265.135      -41.186368       416.50017       0
       17288.105      -218.33842       450.62809       0
       17311.075       193.32591       514.50219       0
       17334.044       199.01351       550.01045       0
       17357.014      -211.20189       588.24528       0
