#WAVELENGTH FLUX ERROR MASK
       7498.2436       3662.2018       20208.904       0
       7510.4843      -4533.1503       20411.357       0
       7522.7249       1196.2961       14291.732       0
       7534.9655       2405.4761       14861.511       0
       7547.2062       2103.3251       9505.3448       0
       7559.4468       3502.5394       9424.4309       0
       7571.6874      -1737.1928       5922.0985       0
       7583.9281       132.77538       5959.8817       0
       7596.1687       2465.2774       3912.9643       0
       7608.4094      -107.59535       4098.7981       0
       7620.6500      -410.84690       2785.0946       0
       7632.8906      -103.95271       3001.3286       0
       7645.1313       298.18639       2120.8583       0
       7657.3719       539.58413       2219.5405       0
       7669.6125       248.41571       1480.5523       0
       7681.8532       801.04903       1551.3585       0
       7694.0938       187.84777       1030.6712       0
       7706.3344       154.53011       1095.3445       0
       7718.5751       367.72196       751.82052       0
       7730.8157       338.47693       837.79063       0
       7743.0563       110.30030       601.79132       0
       7755.2970       206.47413       689.03372       0
       7767.5376      -283.72166       506.96547       0
       7779.7783      -304.79215       552.78032       0
       7792.0189       49.887116       430.12030       0
       7804.2595       139.19637       488.71485       0
       7816.5002       74.290095       351.01264       0
       7828.7408       296.22997       395.72089       0
       7840.9814      -5.2916346       279.66101       0
       7853.2221      -64.686100       315.35412       0
       7865.4627      -185.72973       229.07000       0
       7877.7033      -59.143517       263.86407       0
       7889.9440      -16.387133       194.40397       0
       7902.1846      -87.779613       227.11152       0
       7914.4253       3.5615346       175.87113       0
       7926.6659      -69.160962       202.40193       0
       7938.9065      -87.963269       152.97540       0
       7951.1472      -64.904380       183.45899       0
       7963.3878      -97.835637       141.93795       0
       7975.6284      -6.6866806       167.30364       0
       7987.8691      -71.494636       127.53521       0
       8000.1097       10.719488       154.33686       0
       8012.3503      -107.43425       118.18346       0
       8024.5910      -74.879677       144.55182       0
       8036.8316      -9.3070291       116.07094       0
       8049.0723      -103.48315       130.46118       0
       8061.3129      -44.953072       110.49583       0
       8073.5535       61.300605       133.38990       0
       8085.7942       70.239304       103.88503       0
       8098.0348       59.066685       128.07942       0
       8110.2754       40.170051       100.33327       0
       8122.5161       73.491055       123.57553       0
       8134.7567       21.245050       108.67843       0
       8146.9973      -24.659468       118.07570       0
       8159.2380       43.935892       98.655081       1
       8171.4786       29.022446       28950976.       1
       8183.7192       34.010101       89.579269       1
       8195.9599       68.134611       110.38351       1
       8208.2005       20.779253       86.048502       1
       8220.4412       35.578984       120.77069       1
       8232.6818       64.113371       82.086855       1
       8244.9224       71.953503       100.39064       1
       8257.1631       26.978724       77.513580       1
       8269.4037       17.413290       93.627800       1
       8281.6443       62.064050       73.716720       1
       8293.8850       49.850815       89.459055       1
       8306.1256       44.118480       70.324121       1
       8318.3662       48.047860       85.765357       1
       8330.6069       76.319103       67.410189       1
       8342.8475       48.941259       82.868239       1
       8355.0882       62.284424       65.571818       1
       8367.3288       47.510870       80.651970       1
       8379.5694       41.903114       63.719458       1
       8391.8101       53.497711       77.716788       1
       8404.0507       80.623083       62.232805       1
       8416.2913       58.851760       76.489644       1
       8428.5320       55.530355       60.059096       1
       8440.7726       102.16300       74.500663       1
       8453.0132       76.848011       58.336450       1
       8465.2539       9.6660347       71.396697       1
       8477.4945       49.129702       56.396696       1
       8489.7352       60.051627       69.330072       1
       8501.9758       75.164891       55.090273       1
       8514.2164       56.181699       67.602139       1
       8526.4571       61.789447       53.820541       1
       8538.6977       87.733193       67.563934       1
       8550.9383       65.015198       52.871808       1
       8563.1790       74.773210       65.633021       1
       8575.4196       48.116604       52.049016       1
       8587.6602       49.749597       65.240750       1
       8599.9009       68.814493       51.826141       1
       8612.1415       79.030847       65.043829       1
       8624.3822       69.988742       51.541552       1
       8636.6228       70.203043       63.885954       1
       8648.8634       75.209949       56.313594       1
       8661.1041       71.203129       63.436477       1
       8673.3447       43.912793       49.831244       1
       8685.5853       83.695160       61.891388       1
       8697.8260       44.602412       48.390619       1
       8710.0666       79.846109       59.469965       1
       8722.3072       81.852987       51.162520       1
       8734.5479       73.808660       57.312497       1
       8746.7885       66.968752       49.671194       1
       8759.0291       97.828969       55.941318       1
       8771.2698       54.249580       43.976107       1
       8783.5104       78.955315       54.791812       1
       8795.7511       56.139334       43.053865       1
       8807.9917       57.304684       53.545260       1
       8820.2323       69.383634       44.709455       1
       8832.4730       37.316247       51.969996       1
       8844.7136       75.992622       44.046985       1
       8856.9542       62.528341       48.503183       1
       8869.1949       67.487818       40.499701       1
       8881.4355       74.745425       50.088498       1
       8893.6761       88.918130       40.000014       1
       8905.9168       81.127630       49.560816       1
       8918.1574       64.712411       39.266326       1
       8930.3981       80.307738       49.040448       1
       8942.6387       67.403344       44.330542       1
       8954.8793       61.163085       47.908603       1
       8967.1200       69.768135       37.853841       1
       8979.3606       67.409945       46.887115       1
       8991.6012       71.973791       37.296581       1
       9003.8419       42.695137       45.871547       1
       9016.0825       66.877931       36.755069       1
       9028.3231       45.459396       45.451140       1
       9040.5638       48.984502       36.307853       1
       9052.8044       38.397921       47.413221       1
       9065.0451       38.710849       36.115975       1
       9077.2857       24.601998       38.531545       1
       9089.5263       59.363340       35.726651       1
       9101.7670       69.614184       44.371206       1
       9114.0076       59.339887       34.930562       1
       9126.2482       67.971667       43.304039       1
       9138.4889       64.377415       35.364586       1
       9150.7295       48.974156       42.430951       1
       9162.9701       63.679607       36.933974       1
       9175.2108       45.454103       41.530910       1
       9187.4514       60.170068       33.039979       1
       9199.6920       61.455117       40.679446       1
       9211.9327       63.907381       33.210292       1
       9224.1733       67.107408       38.756292       1
       9236.4140       67.401365       32.255478       1
       9248.6546       57.238157       40.118980       1
       9260.8952       69.159484       31.741333       1
       9273.1359       52.939493       39.553229       1
       9285.3765       50.488297       35.181295       1
       9297.6171       23.204131       41.914025       1
       9309.8578       63.769537       34.968148       1
       9322.0984       50.715244       41.678129       1
       9334.3390       47.940748       30.651399       1
       9346.5797       49.162816       38.477521       1
       9358.8203       43.267965       31.934647       1
       9371.0610       47.230551       38.131491       1
       9383.3016       45.522310       33.950748       1
       9395.5422       41.102294       35.831442       1
       9407.7829       56.987402       29.634197       1
       9420.0235       90.538718       40.417109       1
       9432.2641       58.680224       29.559618       1
       9444.5048       62.494435       36.582510       1
       9456.7454       79.602187       29.252639       1
       9468.9860       66.347118       34.555038       1
       9481.2267       60.747422       28.780803       1
       9493.4673       78.044548       36.049512       1
       9505.7080       68.642603       28.498177       1
       9517.9486       70.967969       35.509607       1
       9530.1892       72.821374       28.158422       1
       9542.4299       63.363378       35.159481       1
       9554.6705       34.352821       31.077284       1
       9566.9111       59.666523       34.920488       1
       9579.1518       57.763407       27.651202       1
       9591.3924       62.026783       34.277821       1
       9603.6330       44.287998       27.211605       1
       9615.8737       69.359769       34.636389       1
       9628.1143       54.299577       26.960807       1
       9640.3550       72.947726       34.231675       1
       9652.5956       61.954135       26.860808       1
       9664.8362       64.150509       33.338136       1
       9677.0769       59.963323       26.620462       1
       9689.3175       66.656862       33.230558       1
       9701.5581       65.118409       26.387709       1
       9713.7988       59.058328       32.786389       1
       9726.0394       65.231014       26.184981       1
       9738.2800       59.325193       32.697676       1
       9750.5207       64.268976       25.899252       1
       9762.7613       65.226221       11583023.       1
       9775.0019       67.627547       25.682471       1
       9787.2426       66.628922       34.706010       1
       9799.4832       58.873988       25.397568       1
       9811.7239       79.091639       37.042976       1
       9823.9645       61.914963       25.344140       1
       9836.2051       71.349883       36.631042       1
       9848.4458       63.356428       25.227481       1
       9860.6864       69.281297       31.640737       1
       9872.9270       64.492542       25.181616       1
       9885.1677       40.069267       31.244491       1
       9897.4083       64.957577       25.088192       1
       9909.6489       65.901774       31.446427       1
       9921.8896       55.527295       24.869879       1
       9934.1302       36.839911       29.350447       1
       9946.3709       67.617473       25.396887       1
       9958.6115       53.767517       30.807527       1
       9970.8521       64.485931       24.562598       1
       9983.0928       55.429596       30.457881       1
       9995.3334       71.912610       24.231617       1
       10007.574       60.643313       29.982976       1
       10019.815       59.926743       26.656882       1
       10032.055       58.035613       29.708521       1
       10044.296       61.047606       23.624722       1
       10056.537       64.154941       29.629366       1
       10068.777       67.687984       23.663625       1
       10081.018       47.459011       31.655424       1
       10093.258       62.338892       23.487892       1
       10105.499       86.925394       29.634378       1
       10117.740       43.013067       23.362164       1
       10129.980       72.314352       29.525293       1
       10142.221       74.774153       23.494676       1
       10154.462       58.356922       29.184280       1
       10166.702       52.185262       23.121316       1
       10178.943       36.761538       25.467731       1
       10191.184       50.888078       22.769459       1
       10203.424       55.647080       28.305353       1
       10215.665       54.356468       23.284798       1
       10227.905       58.304711       28.248510       1
       10240.146       55.126628       22.568824       1
       10252.387       59.065923       28.069656       1
       10264.627       57.986211       24.932285       1
       10276.868       68.758617       27.756627       1
       10289.109       47.569742       21.919782       1
       10301.349       51.512990       27.243653       1
       10313.590       56.243583       21.763326       1
       10325.831       47.749540       27.038856       1
       10338.071       62.840183       21.674526       1
       10350.312       64.521884       26.867593       1
       10362.552       65.399972       21.584789       1
       10374.793       58.728305       26.845552       1
       10387.034       56.961514       21.447458       1
       10399.274       46.047039       26.735854       1
       10411.515       54.427856       21.537468       1
       10423.756       60.014950       26.808754       1
       10435.996       56.861820       21.466344       1
       10448.237       56.118549       26.593608       1
       10460.478       46.952140       21.270892       1
       10472.718       69.801263       26.631652       1
       10484.959       55.493388       21.212809       1
       10497.199       60.321925       26.690072       1
       10509.440       65.788892       21.257689       1
       10521.681       53.809002       26.487442       1
       10533.921       54.289851       21.206621       1
       10546.162       57.754606       6793794.4       1
       10558.403       55.168656       21.215838       1
       10570.643       54.886286       24.803149       1
       10582.884       55.795234       21.198207       1
       10595.125       64.245685       27.643350       1
       10607.365       54.198255       21.273835       1
       10619.606       65.862509       26.328591       1
       10631.846       47.302837       20.858797       1
       10644.087       64.083569       26.120004       1
       10656.328       60.830134       22.815580       1
       10668.568       62.680401       25.779927       1
       10680.809       54.890952       20.521227       1
       10693.050       62.857920       27.704880       1
       10705.290       78.610266       20.540905       1
       10717.531       67.781767       29.541093       1
       10729.772       63.746916       20.383769       1
       10742.012       71.382492       27.547275       1
       10754.253       67.387535       20.913808       1
       10766.493       58.413866       25.331104       1
       10778.734       64.277409       19.108514       1
       10790.975       53.997899       25.067037       1
       10803.215       53.680132       20.236049       1
       10815.456       59.434767       25.076737       1
       10827.697       50.580524       20.102041       1
       10839.937       63.497465       25.252218       1
       10852.178       51.821664       20.044079       1
       10864.419       48.358733       24.991440       1
       10876.659       59.271728       20.458930       1
       10888.900       54.972327       24.816500       1
       10901.140       57.476842       19.846371       1
       10913.381       52.646970       24.659995       1
       10925.622       56.249395       19.813026       1
       10937.862       68.719919       28.825111       1
       10950.103       59.374987       20.776954       1
       10962.344       48.897043       28.596848       1
       10974.584       68.901556       20.430158       1
       10986.825       68.221443       24.819309       1
       10999.066       62.723129       20.374166       1
       11011.306       71.790792       24.845880       1
       11023.547       57.372348       20.391967       1
       11035.787       59.060362       24.685879       1
       11048.028       55.971433       20.330245       1
       11060.269       62.630296       24.642765       1
       11072.509       52.270814       20.241844       1
       11084.750       59.337650       24.500494       1
       11096.991       57.202732       19.609613       1
       11109.231       58.733804       24.511987       1
       11121.472       62.593652       19.641309       1
       11133.713       71.403728       24.931901       1
       11145.953       50.894796       19.773469       1
       11158.194       57.240734       24.863680       1
       11170.434       58.414542       19.850816       1
       11182.675       58.793008       24.802549       1
       11194.916       48.066453       19.779842       1
       11207.156       54.759872       24.894523       0
       11219.397       51.470538       19.749642       0
       11231.638       68.191642       24.956179       0
       11243.878       57.672384       19.793965       0
       11256.119       46.950168       24.725095       0
       11268.360       49.068765       19.665410       0
       11280.600       59.682390       24.805446       0
       11292.841       57.276274       19.741469       0
       11305.081       64.460413       24.789234       0
       11317.322       59.646971       19.769893       0
       11329.563       58.060060       24.675355       0
       11341.803       56.540342       20.296230       0
       11354.044       62.849373       24.824709       0
       11366.285       61.629945       20.006848       0
       11378.525       61.608406       25.575515       0
       11390.766       48.413777       21.002632       0
       11403.007       58.481633       27.673542       0
       11415.247       60.513616       23.355889       0
       11427.488       47.548603       31.378816       0
       11439.728       63.486078       27.521642       0
       11451.969       54.139822       38.154910       0
       11464.210       35.849456       33.844421       0
       11476.450       78.116465       48.158799       0
       11488.691       24.692689       43.430009       0
       11500.932       93.624695       62.299886       0
       11513.172       72.991839       55.651184       0
       11525.413       103.60559       78.418540       0
       11537.654       95.054508       68.832128       0
       11549.894       90.341452       95.229125       0
       11562.135       56.349004       84.097146       0
       11574.375       72.204205       118.95051       0
       11586.616       23.977736       111.31539       0
       11598.857       53.263889       159.32109       0
       11611.097      -12.745891       151.87426       0
       11623.338       124.38832       230.66108       0
       11635.579       83.593888       229.37047       0
       11647.819       126.64949       354.38250       0
       11660.060       209.31236       360.52223       0
       11672.301      -23.048475       530.20806       0
       11684.541       117.63242       515.59057       0
       11696.782       94.166975       725.04616       0
       11709.022       409.14770       754.27176       0
       11721.263      -269.11472       1205.0484       0
       11733.504       351.78921       1245.2530       0
       11745.744       605.42418       2029.8563       0
       11757.985       902.68397       2106.5366       0
       11770.226       2674.6698       3465.1175       0
       11782.466       1488.2552       3414.7681       0
       11794.707       133.80601       4738.9763       0
       11806.948      -1896.4072       3901.4139       0
       11819.188      -737.89155       4832.7482       0
       11831.429       300.86710       4234.6298       0
       11843.669      -528.69584       4594.0244       0
       11855.910       1760.1697       3729.1493       0
       11868.151      -888.79345       4918.1644       0
       11880.391       1393.1018       4444.3034       0
       11892.632       4233.8639       6303.1485       0
