#WAVELENGTH FLUX ERROR MASK
       7469.2552      -5475.3688       24256.092       0
       7480.9904       8948.3315       27838.680       0
       7492.7255      -573.81084       20198.809       0
       7504.4607       8570.0611       21574.230       0
       7516.1959      -6233.8423       14394.209       0
       7527.9311      -6203.5258       15506.471       0
       7539.6662       111.09132       10420.792       0
       7551.4014       679.40684       10473.358       0
       7563.1366      -4388.6688       6644.5218       0
       7574.8718       6561.1726       6751.5741       0
       7586.6069      -660.53366       4312.4382       0
       7598.3421       1729.6869       4537.2769       0
       7610.0773       607.34218       3034.0166       0
       7621.8125      -143.99414       3282.6621       0
       7633.5477       693.82303       2267.4123       0
       7645.2828      -2321.5333       2446.4790       0
       7657.0180       985.04979       1694.1639       0
       7668.7532       1607.6741       1805.6003       0
       7680.4884       696.74616       1202.5034       0
       7692.2235       737.27942       1273.0056       0
       7703.9587      -510.68062       849.24147       0
       7715.6939      -388.12161       924.50600       0
       7727.4291       540.30359       658.82991       0
       7739.1642      -419.55446       738.83437       0
       7750.8994       363.67115       542.69013       0
       7762.6346       231.29013       627.77118       0
       7774.3698       744.18307       467.70056       0
       7786.1050       106.02635       533.39708       0
       7797.8401       173.24379       387.94359       0
       7809.5753       10.254667       438.35372       0
       7821.3105       367.72512       319.51007       0
       7833.0457       213.12572       359.54152       0
       7844.7808       231.92356       279.32255       0
       7856.5160       136.33449       296.27804       0
       7868.2512       163.21121       214.61951       0
       7879.9864       77.940130       248.60026       0
       7891.7215       254.64295       190.56208       0
       7903.4567       183.62946       218.04043       0
       7915.1919       351.84036       165.68184       0
       7926.9271       292.68150       197.15671       0
       7938.6622       234.00595       147.89911       0
       7950.3974       21.974296       178.06859       0
       7962.1326       149.81370       136.60399       0
       7973.8678       263.39655       165.50080       0
       7985.6030       212.65580       126.83593       0
       7997.3381       170.02528       149.23726       0
       8009.0733       140.12154       118.34936       0
       8020.8085       141.79716       141.95072       0
       8032.5437       108.98943       111.86004       0
       8044.2788       174.45999       138.32262       0
       8056.0140       241.03518       106.80642       0
       8067.7492       233.66303       128.08793       0
       8079.4844       188.59651       101.27274       0
       8091.2195       343.83897       125.61659       0
       8102.9547       206.86567       99.019741       0
       8114.6899       203.26096       120.79613       0
       8126.4251       236.39059       95.917343       0
       8138.1603       124.90637       53571057.       0
       8149.8954       157.38809       91.624019       0
       8161.6306       145.98952       112.70615       1
       8173.3658       155.59228       88.776063       1
       8185.1010       193.11780       109.30443       1
       8196.8361       277.84320       86.518639       1
       8208.5713       233.85637       105.20186       1
       8220.3065       287.20497       83.422821       1
       8232.0417       72.039004       82.438267       1
       8243.7768       179.98462       78.734465       1
       8255.5120       137.49211       94.181497       1
       8267.2472       137.27524       74.346542       1
       8278.9824       141.40404       89.916119       1
       8290.7176       137.37694       70.877222       1
       8302.4527       170.53428       87.136682       1
       8314.1879       236.32633       68.423189       1
       8325.9231       158.40139       83.613092       1
       8337.6583       213.70925       66.773956       1
       8349.3934       175.22914       81.205362       1
       8361.1286       207.79926       65.096280       1
       8372.8638       184.44644       79.548518       1
       8384.5990       180.30866       63.316201       1
       8396.3341       186.72970       35490622.       1
       8408.0693       125.77125       61.619976       1
       8419.8045       132.30096       75.316111       1
       8431.5397       167.53573       59.656835       1
       8443.2748       179.72858       58.249751       1
       8455.0100       241.25677       58.575589       1
       8466.7452       227.45146       71.656607       1
       8478.4804       211.20970       56.790397       1
       8490.2156       194.44688       69.589379       1
       8501.9507       228.78358       55.491463       1
       8513.6859       223.49042       68.433766       1
       8525.4211       176.45243       54.132229       1
       8537.1563       165.50005       66.855544       1
       8548.8914       189.52872       53.453809       1
       8560.6266       172.63678       65.993721       1
       8572.3618       189.50862       67.170603       1
       8584.0970       157.88904       65.350333       1
       8595.8321       142.64942       52.062858       1
       8607.5673       171.94428       64.903477       1
       8619.3025       189.52859       56.337510       1
       8631.0377       128.89174       64.133946       1
       8642.7729       135.42094       51.262206       1
       8654.5080       239.16344       66.915267       1
       8666.2432       196.65600       50.659427       1
       8677.9784       187.14612       67.548972       1
       8689.7136       147.62078       49.043239       1
       8701.4487       164.71613       60.085679       1
       8713.1839       185.38273       47.490931       1
       8724.9191       193.08483       57.919550       1
       8736.6543       264.76857       46.234653       1
       8748.3894       184.61133       56.492273       1
       8760.1246       194.56876       44.846393       1
       8771.8598       182.59824       55.308020       1
       8783.5950       178.41039       44.140294       1
       8795.3302       196.29492       54.358664       1
       8807.0653       197.39700       43.271498       1
       8818.8005       195.96275       53.381247       1
       8830.5357       182.76897       42.462787       1
       8842.2709       133.69428       51.788665       1
       8854.0060       164.09840       41.351090       1
       8865.7412       168.14493       51.043623       1
       8877.4764       203.26100       40.769947       1
       8889.2116       202.15797       50.394530       1
       8900.9467       170.83393       40.122346       1
       8912.6819       212.43774       49.688640       1
       8924.4171       200.79224       39.775024       1
       8936.1523       213.91085       49.105044       1
       8947.8875       243.79378       39.249225       1
       8959.6226       160.63000       47.096755       1
       8971.3578       197.50677       38.010198       1
       8983.0930       188.13204       46.958223       1
       8994.8282       208.20520       37.618110       1
       9006.5633       178.27766       46.151010       1
       9018.2985       203.08549       47.947475       1
       9030.0337       106.58270       38.094867       1
       9041.7689       161.78463       39.745603       1
       9053.5040       214.54020       46.158873       1
       9065.2392       197.09655       36.762815       1
       9076.9744       225.04074       47.115589       1
       9088.7096       177.95468       36.932710       1
       9100.4447       131.61280       38.428488       1
       9112.1799       219.42340       36.285901       1
       9123.9151       222.21790       45.393471       1
       9135.6503       220.08428       35.718655       1
       9147.3855       221.24498       44.178167       1
       9159.1206       195.77863       34.950523       1
       9170.8558       251.80959       43.754552       1
       9182.5910       238.97395       34.560766       1
       9194.3262       241.51128       43.039710       1
       9206.0613       226.29337       33.902453       1
       9217.7965       207.58707       51.616591       1
       9229.5317       176.26757       33.032957       1
       9241.2669       284.16534       51.631168       1
       9253.0020       207.36391       44.058700       1
       9264.7372       248.24446       41.511404       1
       9276.4724       221.04773       32.668717       1
       9288.2076       209.57153       40.513426       1
       9299.9428       220.41993       32.352322       1
       9311.6779       187.69606       39.948117       1
       9323.4131       193.99432       31.951543       1
       9335.1483       216.32376       40.053845       1
       9346.8835       167.65913       31.493908       1
       9358.6186       255.34849       40.101986       1
       9370.3538       198.70521       31.385369       1
       9382.0890       223.79391       39.426065       1
       9393.8242       185.64983       30.844886       1
       9405.5593       242.46322       38.985089       1
       9417.2945       212.07484       30.527363       1
       9429.0297       155.08913       37.667615       1
       9440.7649       188.35478       30.158985       1
       9452.5001       216.50696       37.760710       1
       9464.2352       195.05779       29.801819       1
       9475.9704       221.18258       37.657355       1
       9487.7056       184.18811       29.387381       1
       9499.4408       206.59197       37.210152       1
       9511.1759       191.43414       29.283197       1
       9522.9111       234.28420       36.846055       1
       9534.6463       173.18295       28.874742       1
       9546.3815       230.53368       40.982019       1
       9558.1166       179.10259       28.581075       1
       9569.8518       170.63222       40.011603       1
       9581.5870       162.89928       28.321288       1
       9593.3222       98.480097       28.334823       1
       9605.0574       181.14290       28.035936       1
       9616.7925       200.29401       35.236828       1
       9628.5277       158.91540       27.696379       1
       9640.2629       158.74706       34.619847       1
       9651.9981       184.38532       27.744299       1
       9663.7332       167.31039       34.522361       1
       9675.4684       169.32664       27.453835       1
       9687.2036       188.82664       34.537713       1
       9698.9388       184.07555       27.209429       1
       9710.6739       167.25910       34.173307       1
       9722.4091       178.78011       29.339221       1
       9734.1443       181.78301       33.799629       1
       9745.8795       154.08561       35.853947       1
       9757.6146       164.98326       33.433181       1
       9769.3498       170.26538       26.546681       1
       9781.0850       168.08002       33.303337       1
       9792.8202       169.57491       26.353594       1
       9804.5554       204.71456       33.385583       1
       9816.2905       179.78949       28.272396       1
       9828.0257       144.54019       32.821917       1
       9839.7609       184.39597       26.109765       1
       9851.4961       183.50017       33.127670       1
       9863.2312       187.94284       26.203868       1
       9874.9664       167.40695       32.729674       1
       9886.7016       172.76307       26.027925       1
       9898.4368       145.97417       32.508761       1
       9910.1719       194.10687       26.014325       1
       9921.9071       132.51331       32.060192       1
       9933.6423       147.69301       25.416273       1
       9945.3775       141.53068       31.933009       1
       9957.1127       226.79411       34.429491       1
       9968.8478       182.07846       31.695663       1
       9980.5830       189.01970       25.127892       1
       9992.3182       164.48404       31.194289       1
       10004.053       197.12799       24.945307       1
       10015.789       193.10415       31.323183       1
       10027.524       177.11883       24.652339       1
       10039.259       170.15858       31.048622       1
       10050.994       164.38002       24.549360       1
       10062.729       156.47066       30.917941       1
       10074.464       179.77543       24.652287       1
       10086.200       195.67900       30.201791       1
       10097.935       180.24238       24.658657       1
       10109.670       196.16006       29.972727       1
       10121.405       200.47445       24.130956       1
       10133.140       235.79012       30.041878       1
       10144.875       185.25559       23.970596       1
       10156.611       193.17667       29.889966       1
       10168.346       201.64998       23.770760       1
       10180.081       218.96244       29.973925       1
       10191.816       186.99683       23.534256       1
       10203.551       217.80733       29.775956       1
       10215.287       166.06785       23.216301       1
       10227.022       228.78144       29.282128       1
       10238.757       198.04027       23.173983       1
       10250.492       187.69025       28.481203       1
       10262.227       198.42681       22.934276       1
       10273.962       191.69452       34.407681       1
       10285.698       187.89076       22.644335       1
       10297.433       78.730722       22.824710       1
       10309.168       172.73751       22.360132       1
       10320.903       204.78327       28.035958       1
       10332.638       181.32206       22.404441       1
       10344.373       197.25801       27.926268       1
       10356.109       183.10353       22.405902       1
       10367.844       32.889494       16.966563       1
       10379.579       202.68033       22.530035       1
       10391.314       179.32038       27.663157       1
       10403.049       155.66989       29.702499       1
       10414.785       190.16607       27.602478       1
       10426.520       165.84452       22.063132       1
       10438.255       199.37437       27.661360       1
       10449.990       185.04771       22.168087       1
       10461.725       186.60278       27.419843       1
       10473.460       191.14917       28.546611       1
       10485.196       203.61909       27.457010       1
       10496.931       183.98185       22.134002       1
       10508.666       188.77885       28.255606       1
       10520.401       198.02942       22.178721       1
       10532.136       182.42021       28.283338       1
       10543.871       152.12091       22.393565       1
       10555.607       207.62423       27.679024       1
       10567.342       185.96209       22.484924       1
       10579.077       178.35686       27.293598       1
       10590.812       187.40548       21.950898       1
       10602.547       159.99866       26.975991       1
       10614.283       168.56172       21.610382       1
       10626.018       166.54216       26.735684       1
       10637.753       187.75928       21.456920       1
       10649.488       173.28638       26.512631       1
       10661.223       184.07322       23.044539       1
       10672.958       171.37344       26.348207       1
       10684.694       170.97749       21.161664       1
       10696.429       138.24843       26.163759       1
       10708.164       141.91837       21.028847       1
       10719.899       139.40851       25.552662       1
       10731.634       149.15190       21.032345       1
       10743.369       158.61049       26.031381       1
       10755.105       175.80382       21.106127       1
       10766.840       172.60023       26.246513       1
       10778.575       150.13808       20.998773       1
       10790.310       158.53317       26.070479       1
       10802.045       179.06774       20.918102       1
       10813.781       166.95506       25.679773       1
       10825.516       165.36255       20.840900       1
       10837.251       162.84338       25.847195       1
       10848.986       178.55113       20.898770       1
       10860.721       183.36587       25.913193       1
       10872.456       152.96229       20.597959       1
       10884.192       169.12916       25.783641       1
       10895.927       145.58797       20.486051       1
       10907.662       180.75257       25.874031       1
       10919.397       178.23263       20.642096       1
       10931.132       187.92503       25.928092       1
       10942.868       169.81754       22.577373       1
       10954.603       173.79894       25.785611       1
       10966.338       190.63333       20.853998       1
       10978.073       140.41567       25.516693       1
       10989.808       195.45735       20.828654       1
       11001.543       176.00043       25.821148       1
       11013.279       177.54956       20.667538       1
       11025.014       198.88564       11133330.       1
       11036.749       173.56318       20.536807       1
       11048.484       160.31895       25.585229       1
       11060.219       195.04165       20.625535       1
       11071.954       182.37530       25.474570       1
       11083.690       203.35632       20.850343       1
       11095.425       170.34677       25.599556       1
       11107.160       201.88014       21.142891       1
       11118.895       214.33634       26.796761       1
       11130.630       205.73243       28.121236       1
       11142.366       197.42630       26.629326       1
       11154.101       171.93861       20.927520       1
       11165.836       196.44521       26.680121       1
       11177.571       165.56147       20.964955       1
       11189.306       173.44259       26.399479       1
       11201.041       183.45199       21.094135       0
       11212.777       210.07969       26.730396       0
       11224.512       197.55470       28.508042       0
       11236.247       212.13375       26.716477       0
       11247.982       137.99170       21.217059       0
       11259.717       175.32054       26.450277       0
       11271.452       178.37751       21.066067       0
       11283.188       187.66632       26.686044       0
       11294.923       169.07883       21.207324       0
       11306.658       205.28023       27.213431       0
       11318.393       156.53894       22.205155       0
       11330.128       213.12769       29.392701       0
       11341.864       161.39437       24.095395       0
       11353.599       173.79929       32.726747       0
       11365.334       207.71814       36.236531       0
       11377.069       146.46377       38.452510       0
       11388.804       154.45523       36.759270       0
       11400.539       216.95696       48.597176       0
       11412.275       135.58524       43.328433       0
       11424.010       199.08814       62.680564       0
       11435.745       131.06059       55.565895       0
       11447.480       142.99938       77.999594       0
       11459.215       166.39218       68.813770       0
       11470.950       237.39521       94.991361       0
       11482.686       150.05673       83.091347       0
       11494.421       152.71450       116.88831       0
       11506.156       210.46764       106.91872       0
       11517.891       160.66490       155.35296       0
       11529.626       163.99098       146.62136       0
       11541.362       99.866866       222.37788       0
       11553.097       79.509242       216.55413       0
       11564.832      -238.05329       333.49956       0
       11576.567      -44.087256       410.71513       0
       11588.302       587.56930       513.63756       0
       11600.037       42.405645       613.43645       0
       11611.773      -774.10213       734.68441       0
       11623.508      -895.65081       703.52935       0
       11635.243      -37.112915       1346.0131       0
       11646.978       579.16650       1149.3250       0
       11658.713       418.09446       1884.3552       0
       11670.448       520.82084       1916.2547       0
       11682.184      -401.79145       3154.7660       0
