#WAVELENGTH FLUX ERROR MASK
       10170.848      -14.128254       3470.9128       0
       10193.128       4495.3841       3270.6183       0
       10215.409      -1348.8935       2854.7606       0
       10237.689      -2541.5525       2459.0323       0
       10259.970       1698.1743       2169.2676       0
       10282.250       831.58230       1855.9802       0
       10304.531       29.044557       1636.4299       0
       10326.811      -1260.3453       1428.6022       0
       10349.092       839.16019       1314.9166       0
       10371.373       963.80675       1212.4610       0
       10393.653       1226.8420       1117.1581       0
       10415.934      -159.45057       999.31841       0
       10438.214       361.49181       896.99661       0
       10460.495       644.26847       779.15931       0
       10482.775      -90.334799       655.62405       0
       10505.056       237.92888       560.20897       0
       10527.336       443.12384       478.85682       0
       10549.617       404.23138       413.72010       0
       10571.897       226.36504       365.40544       0
       10594.178       604.42820       327.96374       0
       10616.458       482.13843       293.74941       0
       10638.739       724.24144       267.63632       0
       10661.019       555.05573       240.79434       0
       10683.300       295.82441       210.04233       0
       10705.581       344.46349       182.36345       0
       10727.861       320.62264       153.54330       0
       10750.142       357.25976       130.33581       0
       10772.422       258.42808       107.60112       0
       10794.703       333.43235       92.994350       0
       10816.983       359.07010       79.309302       0
       10839.264       303.64445       70.387880       0
       10861.544       312.13131       63.324179       0
       10883.825       287.87288       58.148752       0
       10906.105       308.32185       53.830802       0
       10928.386       295.95480       50.384554       0
       10950.666       256.33790       46.922833       0
       10972.947       296.36045       44.647550       0
       10995.227       301.18241       41.848867       0
       11017.508       269.62517       39.155936       1
       11039.789       356.52568       37.466212       1
       11062.069       301.39034       35.016901       1
       11084.350       314.60878       33.422697       1
       11106.630       335.13431       32.224898       1
       11128.911       346.57296       31.551400       1
       11151.191       314.90334       30.464521       1
       11173.472       301.90525       29.653230       1
       11195.752       290.02054       29.131070       1
       11218.033       312.23087       29.109859       1
       11240.313       277.94358       28.242789       1
       11262.594       310.37125       28.395843       1
       11284.874       121.64608       19.329306       1
       11307.155       293.24972       27.719554       1
       11329.435       267.88426       27.253060       1
       11351.716       272.78972       27.184252       1
       11373.997       265.78035       26.789963       1
       11396.277       288.52059       26.785837       1
       11418.558       283.31246       26.666830       1
       11440.838       274.95202       26.368884       1
       11463.119       272.75810       26.270119       1
       11485.399       279.82092       26.008520       1
       11507.680       298.42518       26.355702       1
       11529.960       257.63106       25.670178       1
       11552.241       323.64891       26.295307       1
       11574.521       269.37537       25.581487       1
       11596.802       291.54733       25.868811       1
       11619.082       329.92475       25.678384       1
       11641.363       265.57600       25.240006       1
       11663.643       298.80140       25.112167       1
       11685.924       301.58006       25.054764       1
       11708.205       268.50368       24.378814       1
       11730.485       320.78599       24.690154       1
       11752.766       292.95074       24.173677       1
       11775.046       303.08749       23.904591       1
       11797.327       320.86454       23.945885       1
       11819.607       303.35704       23.555492       1
       11841.888       310.12295       23.308897       1
       11864.168       297.17278       23.109736       1
       11886.449       321.96937       23.331518       1
       11908.729       295.36517       22.897176       1
       11931.010       302.76648       22.656941       1
       11953.290       298.14356       22.631069       1
       11975.571       311.49912       22.594747       1
       11997.851       266.41821       21.973165       1
       12020.132       318.19597       22.281130       1
       12042.413       296.57501       21.979531       1
       12064.693       304.20546       21.693080       1
       12086.974       304.80788       21.592007       1
       12109.254       281.78325       21.391827       1
       12131.535       279.90823       20.366513       1
       12153.815       275.46350       21.343894       1
       12176.096       301.62894       20.353893       1
       12198.376       318.67432       21.653931       1
       12220.657       279.50242       19.893981       1
       12242.937       290.75121       21.107376       1
       12265.218       123.37849       13.835314       1
       12287.498       307.24356       21.168479       1
       12309.779       312.39468       19.910145       1
       12332.059       290.68286       21.044335       1
       12354.340       317.91068       20.227653       1
       12376.621       326.38815       22.184655       1
       12398.901       720.01745       24.793676       1
       12421.182       749.91720       29.659275       1
       12443.462       2080.9010       37.470979       1
       12465.743       2567.4789       43.751592       1
       12488.023       2041.1267       39.329475       1
       12510.304       1333.0145       35.065502       1
       12532.584       708.46405       28.732713       1
       12554.865       736.85629       28.111845       1
       12577.145       490.30108       23.051917       1
       12599.426       365.40522       21.587981       1
       12621.706       286.90667       18.682390       1
       12643.987       321.81616       20.494059       1
       12666.267       286.43294       18.767075       1
       12688.548       261.90683       19.539120       1
       12710.829       279.38272       18.512648       1
       12733.109       267.09780       19.294585       1
       12755.390       269.91877       18.100676       1
       12777.670       270.46779       19.074327       1
       12799.951       287.88490       18.157757       1
       12822.231       269.49665       18.933042       1
       12844.512       281.89638       17.877694       1
       12866.792       111.12206       13.092450       1
       12889.073       266.77709       17.605324       1
       12911.353       296.28581       18.929878       1
       12933.634       299.31115       17.811840       1
       12955.914       269.96285       18.510013       1
       12978.195       278.02757       17.383348       1
       13000.475       276.66085       18.244955       1
       13022.756       287.63287       17.223574       1
       13045.037       294.33157       18.394103       1
       13067.317       271.93436       16.880968       1
       13089.598       275.75258       18.040423       1
       13111.878       297.32152       17.082699       1
       13134.159       270.93377       17.845368       1
       13156.439       259.49627       16.651087       1
       13178.720       268.85274       17.737396       1
       13201.000       273.74988       16.582756       1
       13223.281       271.53738       17.466075       1
       13245.561       277.64988       16.549573       1
       13267.842       260.67573       17.287633       1
       13290.122       277.64194       16.210475       1
       13312.403       270.34650       17.257531       1
       13334.683       254.95667       16.097804       1
       13356.964       269.98262       17.235157       1
       13379.245       250.62731       16.006749       1
       13401.525       267.31745       16.843414       1
       13423.806       284.59868       16.198817       1
       13446.086       269.71662       16.935144       1
       13468.367       250.12268       15.760303       1
       13490.647       257.84570       16.788565       1
       13512.928       229.90207       15.521166       1
       13535.208       262.57576       16.665565       1
       13557.489       250.53743       15.655556       1
       13579.769       230.64785       16.345801       1
       13602.050       265.91025       15.762948       1
       13624.330       243.45968       16.514712       1
       13646.611       255.27660       15.658181       1
       13668.891       256.78655       16.579664       1
       13691.172       249.13477       15.605834       1
       13713.453       263.67188       16.690541       1
       13735.733       232.29606       15.444352       1
       13758.014       231.23294       16.400725       1
       13780.294       237.69492       15.541377       1
       13802.575       133.57243       11.841904       1
       13824.855       262.28191       15.653875       1
       13847.136       243.98139       16.466014       1
       13869.416       261.80058       15.321427       1
       13891.697       247.75947       16.453412       1
       13913.977       244.88431       15.325292       1
       13936.258       268.40665       16.471020       1
       13958.538       278.74988       15.706905       1
       13980.819       253.90374       16.350246       1
       14003.099       267.67628       15.282182       1
       14025.380       259.58012       16.320552       1
       14047.661       249.59346       15.101185       1
       14069.941       283.75498       16.224225       1
       14092.222       245.72763       14.988608       1
       14114.502       277.68282       15.941707       1
       14136.783       262.78075       14.927487       1
       14159.063       259.81292       16.046308       1
       14181.344       260.24639       15.055908       1
       14203.624       265.68944       15.895920       1
       14225.905       247.39711       14.933455       1
       14248.185       252.19821       15.775420       1
       14270.466       254.35166       14.841715       1
       14292.746       258.93957       15.792881       1
       14315.027       264.56197       14.863491       1
       14337.307       271.08543       15.719574       1
       14359.588       253.04066       14.683488       1
       14381.869       265.26797       15.718396       1
       14404.149       93.522874       10.037439       1
       14426.430       268.14646       15.685175       1
       14448.710       280.65839       14.891894       1
       14470.991       258.13817       15.360791       1
       14493.271       244.73623       14.634672       1
       14515.552       241.88501       15.371580       1
       14537.832       237.45070       14.595321       1
       14560.113       254.01824       15.551124       1
       14582.393       237.30153       14.505084       1
       14604.674       266.11440       15.700909       1
       14626.954       245.26835       14.657065       1
       14649.235       256.60504       15.590974       1
       14671.515       317.46840       15.220273       1
       14693.796       246.19836       15.496600       1
       14716.077       241.81075       14.603033       1
       14738.357       240.88359       15.498633       1
       14760.638       247.32744       14.736175       1
       14782.918       217.32578       15.262528       1
       14805.199       231.36256       14.507102       1
       14827.479       244.98378       15.440072       1
       14849.760       234.76513       14.392704       1
       14872.040       225.26937       15.199033       1
       14894.321       229.26424       14.343710       1
       14916.601       231.73070       15.023342       1
       14938.882       222.00348       14.093763       1
       14961.162       248.76986       15.184683       1
       14983.443       231.44603       14.077927       1
       15005.723       228.17009       15.031019       1
       15028.004       230.49781       14.157860       1
       15050.285       241.69678       15.162289       1
       15072.565       222.71824       14.078420       1
       15094.846       247.57774       15.039030       1
       15117.126       213.36986       13.995327       1
       15139.407       85.581534       10.341069       1
       15161.687       241.87515       14.956133       1
       15183.968       221.17707       14.654179       1
       15206.248       260.13395       15.162434       1
       15228.529       220.76161       14.715773       1
       15250.809       231.59134       14.914475       1
       15273.090       227.67162       14.827672       1
       15295.370       240.62465       14.984014       1
       15317.651       213.37566       14.748946       1
       15339.931       213.50776       14.771924       1
       15362.212       216.16313       14.709536       1
       15384.493       220.09572       14.906653       1
       15406.773       217.91435       14.801882       1
       15429.054       203.45261       14.691098       1
       15451.334       226.35756       14.931224       1
       15473.615       257.20884       15.210876       1
       15495.895       126.69267       10.901346       1
       15518.176       235.66629       14.886679       1
       15540.456       237.50294       14.977204       1
       15562.737       207.26247       14.667061       1
       15585.017       223.87834       14.821367       1
       15607.298       228.45231       14.988355       1
       15629.578       219.15208       14.773933       1
       15651.859       246.27793       15.044511       1
       15674.139       246.07102       14.970413       1
       15696.420       245.69212       15.009270       1
       15718.701       247.17278       14.940897       1
       15740.981       89.252096       10.294363       1
       15763.262       232.36953       14.809755       1
       15785.542       256.59779       14.923286       1
       15807.823       243.22270       14.913220       1
       15830.103       245.91671       14.922675       1
       15852.384       239.17647       14.870922       1
       15874.664       258.93009       15.150560       1
       15896.945       247.07781       14.968424       1
       15919.225       238.50739       14.931899       1
       15941.506       236.73760       14.928429       1
       15963.786       249.17662       15.084939       1
       15986.067       237.35918       14.926370       1
       16008.347       235.09769       15.002716       1
       16030.628       228.27650       14.957741       1
       16052.909       229.12771       15.023386       1
       16075.189       248.50425       15.141566       1
       16097.470       246.15912       15.197217       1
       16119.750       230.85796       14.958813       1
       16142.031       240.28932       15.161821       1
       16164.311       241.85699       15.240168       1
       16186.592       227.31611       15.222465       1
       16208.872       232.15820       15.148474       1
       16231.153       220.79049       15.230208       1
       16253.433       243.53416       15.416780       1
       16275.714       232.26897       15.253299       1
       16297.994       234.25456       15.477290       1
       16320.275       239.10627       15.559544       1
       16342.555       226.56977       15.502694       1
       16364.836       222.64905       15.335488       1
       16387.117       224.87834       15.521349       1
       16409.397       216.47469       15.298344       1
       16431.678       239.09691       15.822813       1
       16453.958       232.40067       15.843910       1
       16476.239       227.53074       16.015992       1
       16498.519       225.02244       16.384812       1
       16520.800       64.477895       11.676481       1
       16543.080       223.88341       17.469066       1
       16565.361       228.69831       18.246968       1
       16587.641       219.10835       19.186574       1
       16609.922       236.22654       20.635816       1
       16632.202       212.92789       21.797199       1
       16654.483       242.11973       24.200387       1
       16676.763       211.05409       26.173578       1
       16699.044       210.34894       28.971938       1
       16721.325       195.72890       32.416581       1
       16743.605       219.87121       36.270164       1
       16765.886       195.66138       41.226840       0
       16788.166       229.13575       46.491325       0
       16810.447       229.28222       52.678469       0
       16832.727       218.85555       58.554414       0
       16855.008       120.29869       64.710979       0
       16877.288       220.30884       72.834021       0
       16899.569       155.14267       80.512527       0
       16921.849       261.69743       90.008399       0
       16944.130       251.86488       99.883664       0
       16966.410       349.35861       112.42667       0
       16988.691       113.14985       122.28585       0
       17010.971       251.03876       136.98175       0
       17033.252       380.73300       150.83066       0
       17055.533       123.88233       165.84305       0
       17077.813      -52.961453       183.33596       0
       17100.094       147.40858       210.34137       0
