#WAVELENGTH FLUX ERROR MASK
       10233.427       1492.7481       2259.6251       0
       10256.352       2297.7194       1987.2594       0
       10279.278       1350.4889       1661.3657       0
       10302.203       1840.8546       1495.6287       0
       10325.128       181.37572       1277.5938       0
       10348.054       1593.9846       1198.2248       0
       10370.979      -441.55536       1043.1353       0
       10393.905       1125.0614       995.46304       0
       10416.830       490.14319       868.13151       0
       10439.755       177.08491       788.54274       0
       10462.681       57.632842       664.43527       0
       10485.606      -96.718668       573.36136       0
       10508.531      -96.640498       472.47130       0
       10531.457       239.69122       417.70946       0
       10554.382       284.01667       349.98671       0
       10577.307       542.86125       318.93404       0
       10600.233       328.31933       274.37659       0
       10623.158       284.39649       255.11026       0
       10646.084      -38.485617       218.69068       0
       10669.009       149.37680       202.53162       0
       10691.934       190.10464       186.17604       0
       10714.860       291.73581       152.65796       0
       10737.785       161.73662       46403650.       0
       10760.710       150.90632       105.36001       0
       10783.636       205.41334       86.636773       0
       10806.561       287.09299       76.395843       0
       10829.487       191.05543       63.715356       0
       10852.412       153.67084       57.747673       0
       10875.337       192.48809       51.455559       0
       10898.263       200.89611       48.334432       0
       10921.188       226.19040       44.256898       0
       10944.113       194.48809       42.578340       0
       10967.039       198.73852       38.585133       0
       10989.964       196.88298       37.230878       0
       11012.890       222.73542       34.093686       1
       11035.815       225.77887       33.031844       1
       11058.740       210.87752       29.878642       1
       11081.666       208.96703       29.445344       1
       11104.591       223.28360       27.499826       1
       11127.516       217.85208       27.137507       1
       11150.442       202.67213       25.605030       1
       11173.367       225.57704       25.997508       1
       11196.292       212.15131       24.882141       1
       11219.218       204.66743       25.168257       1
       11242.143       202.18682       8478012.2       1
       11265.069       210.41443       24.726128       1
       11287.994       196.34771       23.639358       1
       11310.919       199.92972       24.278828       1
       11333.845       184.45683       23.489648       1
       11356.770       171.92530       23.426244       1
       11379.695       216.79044       22.965441       1
       11402.621       186.88987       23.209149       1
       11425.546       189.51712       22.372097       1
       11448.472       187.60874       22.831534       1
       11471.397       180.15582       22.043885       1
       11494.322       168.58353       22.513108       1
       11517.248       190.84652       21.871541       1
       11540.173       185.00038       22.474664       1
       11563.098       190.82347       21.911540       1
       11586.024       174.26824       22.180597       1
       11608.949       197.68793       21.772170       1
       11631.875       183.05806       21.986139       1
       11654.800       205.09487       21.412568       1
       11677.725       211.71314       7315282.0       1
       11700.651       197.55138       20.957365       1
       11723.576       203.29560       21.338531       1
       11746.501       191.74110       20.390381       1
       11769.427       218.65110       21.096788       1
       11792.352       204.33848       20.110546       1
       11815.277       216.55083       20.635652       1
       11838.203       197.01094       19.775573       1
       11861.128       192.93530       20.127860       1
       11884.054       213.16989       19.556138       1
       11906.979       215.34413       19.973585       1
       11929.904       254.47000       19.654807       1
       11952.830       221.21280       19.834599       1
       11975.755       221.53650       19.114142       1
       11998.680       225.89228       19.511537       1
       12021.606       201.34698       18.729807       1
       12044.531       214.99420       19.198114       1
       12067.457       213.61862       18.592494       1
       12090.382       204.68871       18.939656       1
       12113.307       173.77950       18.068764       1
       12136.233       213.07172       18.831047       1
       12159.158       197.56709       18.020127       1
       12182.083       190.91009       18.072226       1
       12205.009       191.19446       17.830198       1
       12227.934       209.53783       18.464351       1
       12250.860       182.39325       17.466336       1
       12273.785       192.80936       18.029899       1
       12296.710       194.96982       17.531848       1
       12319.636       194.03684       17.826481       1
       12342.561       167.42669       16.996582       1
       12365.486       185.31811       17.602699       1
       12388.412       181.75911       16.993034       1
       12411.337       213.06083       17.803536       1
       12434.262       173.12786       16.867530       1
       12457.188       193.01533       17.360128       1
       12480.113       159.96994       16.443142       1
       12503.039       197.49623       17.304532       1
       12525.964       175.27625       16.576174       1
       12548.889       208.61648       17.202734       1
       12571.815       171.11951       16.348696       1
       12594.740       165.79872       16.758869       1
       12617.665       171.85900       16.345671       1
       12640.591       186.98060       16.912239       1
       12663.516       191.40742       16.562384       1
       12686.442       174.07149       16.771689       1
       12709.367       179.85424       16.300632       1
       12732.292       196.05652       16.655129       1
       12755.218       187.01279       16.077507       1
       12778.143       167.88541       16.169136       1
       12801.068       177.11762       15.840565       1
       12823.994       183.52709       16.249955       1
       12846.919       193.48179       15.799688       1
       12869.845       191.46676       16.274618       1
       12892.770       188.69696       15.739850       1
       12915.695       192.90254       16.128606       1
       12938.621       198.75387       15.525978       1
       12961.546       197.44506       15.904897       1
       12984.471       190.16856       15.455092       1
       13007.397       205.37783       15.903088       1
       13030.322       199.28943       15.233728       1
       13053.247       192.73942       15.537600       1
       13076.173       173.34679       14.905020       1
       13099.098       186.42038       15.425603       1
       13122.024       180.81947       14.994491       1
       13144.949       191.31943       15.309023       1
       13167.874       169.72483       14.744143       1
       13190.800       186.95703       14.957323       1
       13213.725       176.66350       14.569540       1
       13236.650       190.11192       15.006941       1
       13259.576       173.51620       14.517631       1
       13282.501       169.60516       14.708053       1
       13305.427       171.33630       14.379352       1
       13328.352       189.88245       14.781965       1
       13351.277       174.59395       14.391553       1
       13374.203       174.15369       14.571626       1
       13397.128       163.48020       14.219049       1
       13420.053       187.79232       14.603137       1
       13442.979       167.34235       14.121863       1
       13465.904       182.31970       4703191.8       1
       13488.830       168.34545       14.024161       1
       13511.755       179.06233       14.379080       1
       13534.680       168.20245       13.800418       1
       13557.606       154.14128       14.085897       1
       13580.531       148.46823       13.605261       1
       13603.456       175.64731       14.196741       1
       13626.382       164.44463       13.819572       1
       13649.307       173.34474       14.232574       1
       13672.232       171.82706       13.806755       1
       13695.158       168.61751       14.236552       1
       13718.083       164.31685       13.817631       1
       13741.009       170.02528       14.244983       1
       13763.934       167.20937       13.838150       1
       13786.859       174.10023       14.285232       1
       13809.785       170.89936       13.894747       1
       13832.710       166.83466       14.228480       1
       13855.635       171.36581       13.867283       1
       13878.561       161.62092       14.113308       1
       13901.486       170.28833       13.817412       1
       13924.412       174.95756       14.173734       1
       13947.337       159.15938       13.600238       1
       13970.262       176.95628       14.132938       1
       13993.188       179.21468       13.694697       1
       14016.113       173.95922       13.924251       1
       14039.038       171.42228       13.460504       1
       14061.964       174.50729       13.882232       1
       14084.889       178.43854       13.472909       1
       14107.815       171.72856       13.720078       1
       14130.740       183.71593       13.471130       1
       14153.665       181.20748       13.759314       1
       14176.591       176.86070       13.381589       1
       14199.516       179.95281       13.724799       1
       14222.441       170.91993       13.239352       1
       14245.367       180.41713       13.589296       1
       14268.292       176.85572       13.123041       1
       14291.217       171.34124       13.390352       1
       14314.143       170.26318       13.093797       1
       14337.068       165.92611       13.324963       1
       14359.994       178.13704       13.082093       1
       14382.919       183.26826       13.343829       1
       14405.844       167.10117       12.954205       1
       14428.770       172.75648       13.316381       1
       14451.695       168.23476       12.883812       1
       14474.620       175.39101       13.305029       1
       14497.546       179.67569       12.989650       1
       14520.471       188.01740       13.383796       1
       14543.397       169.69558       12.842224       1
       14566.322       164.85361       13.167444       1
       14589.247       163.58382       12.819699       1
       14612.173       174.44331       13.243614       1
       14635.098       173.77440       12.816109       1
       14658.023       162.54737       13.171877       1
       14680.949       167.97688       12.799768       1
       14703.874       158.57394       13.108838       1
       14726.799       156.57507       12.811377       1
       14749.725       158.20000       13.107110       1
       14772.650       172.97101       12.913613       1
       14795.576       169.53767       13.258287       1
       14818.501       171.98124       12.897180       1
       14841.426       158.88206       13.129202       1
       14864.352       154.92680       12.698478       1
       14887.277       141.26651       12.815993       1
       14910.202       166.34739       12.701872       1
       14933.128       157.58233       12.810821       1
       14956.053       146.35847       12.472613       1
       14978.979       150.86122       12.736060       1
       15001.904       157.29183       12.450914       1
       15024.829       140.54663       12.540960       1
       15047.755       153.26753       12.330132       1
       15070.680       150.22750       12.628978       1
       15093.605       163.31484       12.482876       1
       15116.531       147.72416       12.595852       1
       15139.456       157.78895       12.367451       1
       15162.382       155.86786       12.618881       1
       15185.307       161.61495       12.398274       1
       15208.232       174.02297       12.694781       1
       15231.158       164.34662       12.321732       1
       15254.083       173.48608       12.751764       1
       15277.008       149.01511       12.167212       1
       15299.934       156.28897       12.580145       1
       15322.859       86.162677       9.2678846       1
       15345.784       143.06431       12.396406       1
       15368.710       168.45049       12.315716       1
       15391.635       141.27797       12.421401       1
       15414.561       159.68582       12.256017       1
       15437.486       145.02999       12.355824       1
       15460.411       157.71014       12.242467       1
       15483.337       147.13536       12.377809       1
       15506.262       145.74308       12.099760       1
       15529.187       143.20778       12.466335       1
       15552.113       153.98260       12.219065       1
       15575.038       166.72767       12.559332       1
       15597.964       156.08597       12.247386       1
       15620.889       151.28431       12.453414       1
       15643.814       187.86041       12.558871       1
       15666.740       167.04239       12.560444       1
       15689.665       169.18881       12.258485       1
       15712.590       169.59643       12.534885       1
       15735.516       150.92309       12.051913       1
       15758.441       158.38319       12.362478       1
       15781.367       169.00201       12.149925       1
       15804.292       156.59917       12.318027       1
       15827.217       167.26359       12.064744       1
       15850.143       152.45884       12.169468       1
       15873.068       152.92177       11.943809       1
       15895.993       70.726308       8.9277055       1
       15918.919       171.94144       12.144738       1
       15941.844       66.732766       8.8749955       1
       15964.769       166.06232       12.062354       1
       15987.695       67.280174       8.8980106       1
       16010.620       168.33145       12.129710       1
       16033.546       73.696034       8.9559127       1
       16056.471       93.695076       8.1763851       1
       16079.396       71.038477       8.8624685       1
       16102.322       95.017605       8.2063627       1
       16125.247       66.697658       8.8597308       1
       16148.172       91.555963       8.1585939       1
       16171.098       72.378528       8.9337329       1
       16194.023       90.524797       8.1838814       1
       16216.949       64.708205       8.8327788       1
       16239.874       94.192041       8.2227391       1
       16262.799       60.978780       8.9526521       1
       16285.725       96.748884       8.3057878       1
       16308.650       63.942014       8.8505362       1
       16331.575       93.414737       8.2896096       1
       16354.501     -0.28238641       0.0000000       1
       16377.426     -0.27457402       0.0000000       1
       16400.352     -0.26872012       0.0000000       1
       16423.277     -0.26450911       0.0000000       1
       16446.202     -0.26180819       0.0000000       1
       16469.128     -0.26118818       0.0000000       1
       16492.053     -0.26279008       0.0000000       1
       16514.978     -0.26696775       0.0000000       1
       16537.904     -0.27453438       0.0000000       1
       16560.829     -0.28631787       0.0000000       1
       16583.754     -0.30339830       0.0000000       1
       16606.680     -0.32621766       0.0000000       1
       16629.605     -0.35592772       0.0000000       1
       16652.531     -0.39356411       0.0000000       1
       16675.456     -0.44060761       0.0000000       1
       16698.381     -0.49881899       0.0000000       1
       16721.307     -0.56985959       0.0000000       1
       16744.232     -0.65722819       0.0000000       1
       16767.157     -0.76378043       0.0000000       0
       16790.083     -0.89306387       0.0000000       0
       16813.008      -1.0443540       0.0000000       0
       16835.934      -1.2213391       0.0000000       0
       16858.859      -1.4184619       0.0000000       0
       16881.784      -1.6355459       0.0000000       0
       16904.710      -1.8665302       0.0000000       0
       16927.635      -2.1126419       0.0000000       0
       16950.560      -2.3856789       0.0000000       0
       16973.486      -2.6798638       0.0000000       0
       16996.411      -3.0123407       0.0000000       0
       17019.337      -3.3830967       0.0000000       0
       17042.262      -3.7984431       0.0000000       0
       17065.187      -4.2438981       0.0000000       0
       17088.113      -4.7132654       0.0000000       0
       17111.038      -5.2228858       0.0000000       0
       17133.963      -5.8321672       0.0000000       0
       17156.889      -6.5549977       0.0000000       0
       17179.814      -7.4767853       0.0000000       0
       17202.739      -8.3098932       0.0000000       0
       17225.665      -9.5813912       0.0000000       0
       17248.590      -11.023325       0.0000000       0
       17271.516      -12.548623       0.0000000       0
       17294.441      -14.125765       0.0000000       0
       17317.366      -15.811471       0.0000000       0
       17340.292      -17.527291       0.0000000       0
       17363.217      -19.342518       0.0000000       0
