#WAVELENGTH FLUX ERROR MASK
       10224.548      -315.37590       2470.1103       0
       10247.504       283.86198       2077.9499       0
       10270.460      -241.10475       1838.7527       0
       10293.416       2574.9161       1573.6913       0
       10316.372       491.85498       1407.5742       0
       10339.328       1983.6616       1242.9496       0
       10362.284      -1347.6945       1125.5730       0
       10385.240       1609.9387       1033.0424       0
       10408.196      -406.67444       943.58938       0
       10431.152       463.69322       833.04261       0
       10454.108       83.439815       739.41578       0
       10477.064       8.5483365       608.43299       0
       10500.020      -227.09932       528.12221       0
       10522.977       933.73816       472.78927       0
       10545.933       122.77269       397.43787       0
       10568.889       1270.2438       360.31170       0
       10591.845       210.28954       310.09763       0
       10614.801       440.75094       278.93857       0
       10637.757       82.570663       248.73113       0
       10660.713       368.13634       225.36693       0
       10683.669       157.84321       194.80112       0
       10706.625       230.62653       169.27193       0
       10729.581       280.59175       143.49123       0
       10752.537       364.27592       120.86480       0
       10775.493       138.43506       98.169090       0
       10798.449       152.96779       83.898829       0
       10821.406       198.49081       72.329520       0
       10844.362       193.63606       63.974474       0
       10867.318       259.45751       58.300408       0
       10890.274       123.21433       51.612910       0
       10913.230       160.46580       48.636286       0
       10936.186       190.40370       45.226093       0
       10959.142       194.55147       42.694492       0
       10982.098       236.51904       40.680171       0
       11005.054       210.69797       37.816809       1
       11028.010       236.45939       35.489364       1
       11050.966       253.26859       33.698358       1
       11073.922       215.15640       31.556440       1
       11096.878       217.21969       29.968842       1
       11119.835       220.67101       29.021467       1
       11142.791       157.72266       27.440926       1
       11165.747       190.35184       27.260904       1
       11188.703       195.41768       26.833688       1
       11211.659       190.98923       26.251753       1
       11234.615       214.28290       26.339303       1
       11257.571       185.85845       25.851532       1
       11280.527       214.93062       25.757839       1
       11303.483       209.19896       25.643815       1
       11326.439       207.66909       25.154555       1
       11349.395       184.10146       24.842194       1
       11372.351       186.26803       24.638492       1
       11395.307       205.16795       24.586426       1
       11418.264       151.96173       23.889769       1
       11441.220       193.11901       24.160579       1
       11464.176       182.27649       23.795313       1
       11487.132       177.74932       23.840429       1
       11510.088       203.80150       23.934951       1
       11533.044       177.86809       23.512016       1
       11556.000       204.11382       23.855126       1
       11578.956       202.59625       23.634666       1
       11601.912       194.34397       23.399819       1
       11624.868       188.84914       23.292227       1
       11647.824       224.49192       23.384303       1
       11670.780       202.12069       22.950495       1
       11693.736       230.59466       22.858955       1
       11716.693       248.30768       22.654320       1
       11739.649       254.15759       22.628545       1
       11762.605       183.24128       21.795892       1
       11785.561       167.91975       21.286603       1
       11808.517       203.98745       21.400777       1
       11831.473       211.91348       20.755642       1
       11854.429       192.00310       19.672352       1
       11877.385       201.80163       20.266751       1
       11900.341       223.93252       19.597725       1
       11923.297       212.84279       20.070100       1
       11946.253       231.44265       19.635355       1
       11969.209       194.60145       19.684958       1
       11992.165       206.78992       19.226483       1
       12015.122       204.08101       19.482222       1
       12038.078       199.30970       18.804863       1
       12061.034       203.25741       19.154052       1
       12083.990       202.22093       18.681336       1
       12106.946       218.81239       19.173816       1
       12129.902       195.77447       18.359896       1
       12152.858       215.94685       18.990275       1
       12175.814       197.46206       18.251885       1
       12198.770       184.70005       18.448515       1
       12221.726       225.21824       18.274255       1
       12244.682       197.67769       18.227956       1
       12267.638       178.10497       17.633538       1
       12290.594       172.28155       17.981990       1
       12313.551       178.15130       17.409982       1
       12336.507       200.20303       17.862983       1
       12359.463       189.21143       17.302176       1
       12382.419       160.42405       17.373787       1
       12405.375       204.63804       17.305369       1
       12428.331       198.87010       17.742110       1
       12451.287       181.42400       16.991637       1
       12474.243       199.76860       17.624511       1
       12497.199       178.90889       16.873894       1
       12520.155       188.86847       17.386783       1
       12543.111       57.068170       12.336155       1
       12566.067       183.00356       17.239769       1
       12589.023       179.89367       16.724737       1
       12611.980       168.83358       17.727187       1
       12634.936       180.23665       16.661393       1
       12657.892       186.34146       17.817660       1
       12680.848       200.90862       16.697645       1
       12703.804       170.76051       16.785638       1
       12726.760       195.70583       16.553809       1
       12749.716       185.41962       16.694105       1
       12772.672       174.26848       16.023753       1
       12795.628       171.13146       16.272486       1
       12818.584       162.10226       15.756135       1
       12841.540       184.54713       16.240782       1
       12864.496       181.82294       15.826857       1
       12887.452       190.82671       16.330524       1
       12910.409       196.39865       15.883544       1
       12933.365       72.998065       11.606430       1
       12956.321       160.74597       15.392347       1
       12979.277       185.53178       15.840328       1
       13002.233       174.84803       15.309670       1
       13025.189       192.71165       15.857647       1
       13048.145       183.97251       15.198480       1
       13071.101       178.91526       15.533857       1
       13094.057       168.98832       14.956668       1
       13117.013       198.16684       15.481862       1
       13139.969       178.87761       13.994584       1
       13162.925       197.66109       14.429784       1
       13185.881       184.50405       13.865513       1
       13208.838       199.84421       14.557000       1
       13231.794       185.17550       13.749039       1
       13254.750       184.25264       14.472376       1
       13277.706       159.84643       13.516133       1
       13300.662       184.31270       14.410029       1
       13323.618       175.02635       13.534288       1
       13346.574       184.03384       14.368298       1
       13369.530       203.32618       13.730096       1
       13392.486       167.76347       14.169700       1
       13415.442       191.55111       14.385100       1
       13438.398       157.74124       14.013147       1
       13461.354       163.77120       13.825262       1
       13484.310       162.13972       13.942055       1
       13507.267       153.13351       12.699556       1
       13530.223       171.35077       13.871583       1
       13553.179       161.50969       12.917425       1
       13576.135       190.62813       14.047085       1
       13599.091       147.99811       12.886946       1
       13622.047       182.99650       13.930763       1
       13645.003       184.77533       13.210349       1
       13667.959       186.25891       13.869689       1
       13690.915       164.20157       13.000788       1
       13713.871       175.80906       13.835719       1
       13736.827       140.73902       12.810653       1
       13759.783       160.20708       13.651114       1
       13782.739       168.67715       13.009634       1
       13805.695       177.29560       13.894199       1
       13828.652       156.95984       12.941492       1
       13851.608       200.26498       14.129376       1
       13874.564       173.21312       13.121370       1
       13897.520       184.44520       13.929800       1
       13920.476       164.94752       12.899287       1
       13943.432       192.38539       13.884997       1
       13966.388       181.57937       12.979169       1
       13989.344       185.61106       13.800621       1
       14012.300       155.66198       12.675240       1
       14035.256       159.41561       13.258330       1
       14058.212       161.99648       12.599170       1
       14081.168       166.92467       13.196127       1
       14104.124       193.07679       12.705915       1
       14127.081       203.89084       13.525967       1
       14150.037       158.02650       12.281903       1
       14172.993       177.06910       13.218157       1
       14195.949       187.25823       12.627264       1
       14218.905       151.20336       12.868217       1
       14241.861       150.91421       12.268453       1
       14264.817       159.04431       12.934919       1
       14287.773       172.29493       12.220354       1
       14310.729       180.92625       12.986379       1
       14333.685       183.49391       12.351361       1
       14356.641       173.04588       12.873111       1
       14379.597       175.22631       12.110785       1
       14402.553       168.44189       12.831083       1
       14425.510       162.38726       12.065953       1
       14448.466       161.81824       12.738349       1
       14471.422       165.34299       12.965941       1
       14494.378       168.12073       13.220284       1
       14517.334       159.04904       12.841893       1
       14540.290       167.81415       13.142121       1
       14563.246       178.38587       12.936712       1
       14586.202       171.32940       13.215639       1
       14609.158       164.56262       12.838437       1
       14632.114       174.62215       13.229657       1
       14655.070       156.47118       12.717036       1
       14678.026       161.36828       13.069129       1
       14700.982       155.92966       12.703672       1
       14723.939       171.27201       13.158155       1
       14746.895       172.62182       12.861119       1
       14769.851       156.78863       13.080172       1
       14792.807       150.35143       12.595144       1
       14815.763       153.58610       13.011574       1
       14838.719       161.24668       12.732326       1
       14861.675       166.49158       13.068483       1
       14884.631       149.71477       12.605271       1
       14907.587       161.79059       12.854860       1
       14930.543       143.92376       12.433854       1
       14953.499       139.21498       12.549350       1
       14976.455       150.46066       12.357941       1
       14999.411       155.02925       12.640079       1
       15022.368       145.55167       12.258391       1
       15045.324       134.94049       12.433101       1
       15068.280       159.05593       12.290336       1
       15091.236       160.80940       12.734884       1
       15114.192       157.91545       12.262245       1
       15137.148       150.43517       12.579241       1
       15160.104       160.10974       12.281872       1
       15183.060       147.16554       12.431815       1
       15206.016       155.00388       12.130237       1
       15228.972       145.19076       12.430958       1
       15251.928       137.49877       12.022451       1
       15274.884       152.16845       12.366001       1
       15297.840       148.44188       12.063138       1
       15320.797       143.61360       12.280464       1
       15343.753       150.38642       12.160854       1
       15366.709       146.79056       12.457875       1
       15389.665       139.90411       12.075345       1
       15412.621       85.619164       9.1988652       1
       15435.577       157.60718       12.243567       1
       15458.533       143.81837       12.188511       1
       15481.489       149.44217       12.097394       1
       15504.445       160.49230       12.566050       1
       15527.401       135.14695       12.011065       1
       15550.357       160.73664       12.595116       1
       15573.313       156.05268       12.144094       1
       15596.269       166.07195       12.722376       1
       15619.226       135.25846       12.064197       1
       15642.182       161.26817       13.718267       1
       15665.138       161.32333       12.223457       1
       15688.094       154.62229       12.582604       1
       15711.050       157.41988       12.154815       1
       15734.006       158.98803       12.428939       1
       15756.962       152.50649       12.133403       1
       15779.918       146.77227       12.626510       1
       15802.874       166.50556       12.861367       1
       15825.830       159.27402       12.764794       1
       15848.786       169.21464       12.827584       1
       15871.742       150.25175       12.571875       1
       15894.698       178.13774       13.101067       1
       15917.655       157.67565       12.858809       1
       15940.611       127.41556       12.508077       1
       15963.567       164.24432       12.955350       1
       15986.523       166.98150       13.023594       1
       16009.479       170.21520       13.002516       1
       16032.435       162.42563       12.908225       1
       16055.391       139.56563       12.625074       1
       16078.347       150.87132       12.850755       1
       16101.303       147.76849       12.727576       1
       16124.259       152.26338       12.921627       1
       16147.215       154.70273       12.909066       1
       16170.171       161.81042       13.042832       1
       16193.127       152.68863       12.996510       1
       16216.084       145.62111       12.812828       1
       16239.040       161.73967       13.148587       1
       16261.996       179.26066       13.314510       1
       16284.952       168.99702       13.370622       1
       16307.908       143.77700       12.763438       1
       16330.864       136.02050       13.010124       1
       16353.820       168.70254       13.431149       1
       16376.776       145.35266       13.111880       1
       16399.732       171.65049       13.271154       1
       16422.688       151.46584       13.320307       1
       16445.644       161.70376       13.353933       1
       16468.600       162.45651       13.427607       1
       16491.556       147.32494       13.346373       1
       16514.513       155.79325       13.525064       1
       16537.469       159.38205       13.811943       1
       16560.425       182.54848       14.485788       1
       16583.381       119.02650       14.243976       1
       16606.337       150.36524       15.145608       1
       16629.293       152.19341       16.033986       1
       16652.249       160.16095       17.133597       1
       16675.205       147.16278       18.157440       1
       16698.161       140.97084       19.846788       1
       16721.117       127.63201       21.833596       1
       16744.073       149.53831       24.256545       1
       16767.029       128.17716       27.042117       0
       16789.985       164.92675       30.978451       0
       16812.942       151.51728       35.225487       0
       16835.898       113.98623       39.444551       0
       16858.854       91.152724       44.285573       0
       16881.810       223.14875       51.065538       0
       16904.766       50.616601       55.302066       0
       16927.722       186.25893       63.055820       0
       16950.678       221.08779       70.263799       0
       16973.634       48.423736       76.779025       0
       16996.590       105.63771       86.193522       0
       17019.546       189.91459       96.526264       0
       17042.502       196.81493       107.58804       0
       17065.458       220.84438       119.71012       0
       17088.414       243.33757       124.08785       0
       17111.371       175.37014       141.28347       0
       17134.327       54.395556       152.05964       0
       17157.283       269.21081       181.23814       0
       17180.239      -61.900742       199.29032       0
       17203.195       1.1642131       235.83168       0
       17226.151       277.71324       267.08225       0
       17249.107       98.965101       308.74200       0
       17272.063       125.02420       337.57628       0
       17295.019      -102.06341       385.90960       0
       17317.975       556.09268       422.31630       0
       17340.931       154.59850       472.14675       0
       17363.887      -723.30136       495.58021       0
