#WAVELENGTH FLUX ERROR MASK
       10177.290      -2558.6840       3437.3772       0
       10199.774      -4219.5697       2910.4809       0
       10222.257       840.63032       2785.2689       0
       10244.741      -1688.6117       2226.2771       0
       10267.224      -2491.4069       2019.2785       0
       10289.708       552.06252       1701.7932       0
       10312.192      -437.46609       0.0000000       0
       10334.675       624.27133       1329.6242       0
       10357.159      -857.08800       1272.8517       0
       10379.642       743.39251       1113.8189       0
       10402.126       2111.8710       1098.0135       0
       10424.609       613.05139       923.61515       0
       10447.093       456.03739       858.38067       0
       10469.576       1857.3920       700.20197       0
       10492.060      -117.66530       607.32032       0
       10514.543       151.09209       487.88096       0
       10537.027       49.679518       443.78138       0
       10559.510      -120.27661       364.04227       0
       10581.994       295.43326       346.47211       0
       10604.477       748.54246       297.42462       0
       10626.961       421.59989       281.74265       0
       10649.444       123.03564       238.10309       0
       10671.928       538.50176       225.45650       0
       10694.412       301.32155       183.39937       0
       10716.895       488.21640       170.08490       0
       10739.379       352.93094       133.85641       0
       10761.862       254.55699       118.32786       0
       10784.346       71.807821       92.200058       0
       10806.829       286.48174       84.343847       0
       10829.313       164.25600       67.959049       0
       10851.796       204.68424       65.848279       0
       10874.280       206.06279       55.345123       0
       10896.763       232.38596       55.345808       0
       10919.247       313.85998       48.333273       0
       10941.730       329.81293       49.500187       0
       10964.214       165.41485       41.700996       0
       10986.697       247.34739       40.925774       0
       11009.181       207.95931       36.647443       1
       11031.665       274.75604       37.471850       1
       11054.148       266.95340       33.381126       1
       11076.632       318.04275       34.079276       1
       11099.115       308.68677       30.761358       1
       11121.599       307.77312       31.532964       1
       11144.082       249.34562       28.130139       1
       11166.566       209.50297       29.274081       1
       11189.049       261.39436       27.114443       1
       11211.533      -4.6972352       0.0000000       1
       11234.016       240.22188       26.701985       1
       11256.500       280.39972       28.352385       1
       11278.983       233.56840       25.867122       1
       11301.467       248.82451       27.308848       1
       11323.950       252.02093       25.878080       1
       11346.434       237.15442       26.318570       1
       11368.917       258.37104       25.444564       1
       11391.401       272.75200       26.990360       1
       11413.885       253.91147       24.818987       1
       11436.368       236.46932       26.252089       1
       11458.852       201.86396       23.507402       1
       11481.335       264.88991       26.310425       1
       11503.819       201.60567       23.542597       1
       11526.302       264.03374       26.183834       1
       11548.786       230.89557       24.193794       1
       11571.269       247.08798       25.640885       1
       11593.753       224.23785       22.862046       1
       11616.236       213.95136       24.657507       1
       11638.720       214.96288       23.385019       1
       11661.203       268.07595       25.093498       1
       11683.687       262.66864       23.277713       1
       11706.170       249.56429       24.447480       1
       11728.654       252.51528       22.711660       1
       11751.137       279.74839       24.280241       1
       11773.621       231.35303       22.021523       1
       11796.105       218.90484       23.101878       1
       11818.588       218.86536       21.442778       1
       11841.072       249.74537       23.050296       1
       11863.555       208.83295       21.180673       1
       11886.039       230.70873       22.653879       1
       11908.522       250.73740       21.283289       1
       11931.006       288.04205       22.739778       1
       11953.489       301.93154       21.625013       1
       11975.973       274.78484       22.272953       1
       11998.456       228.37838       20.587940       1
       12020.940       233.83415       21.839170       1
       12043.423       232.07555       20.062969       1
       12065.907       224.73115       21.078202       1
       12088.390       232.76906       20.018022       1
       12110.874       220.00673       21.073451       1
       12133.358       202.23938       19.524894       1
       12155.841       285.36349       12864482.       1
       12178.325       177.12498       19.041480       1
       12200.808       222.43347       20.369323       1
       12223.292       232.59283       22.387314       1
       12245.775       218.46817       20.249365       1
       12268.259       236.62976       22.296126       1
       12290.742       244.35861       20.248894       1
       12313.226       226.80752       22.010865       1
       12335.709       254.39191       20.231375       1
       12358.193       214.81102       21.677811       1
       12380.676       294.91421       20.331581       1
       12403.160       252.32992       21.702798       1
       12425.643       230.68479       19.568223       1
       12448.127       243.52638       21.430901       1
       12470.610       229.64612       19.321685       1
       12493.094       259.02420       21.460221       1
       12515.578       242.05154       19.309020       1
       12538.061       207.74939       20.604812       1
       12560.545       239.45472       19.319149       1
       12583.028       217.40523       20.700993       1
       12605.512       227.65065       19.160381       1
       12627.995       227.17392       20.620236       1
       12650.479       251.63685       19.248477       1
       12672.962       239.07079       20.616286       1
       12695.446       235.31575       18.831172       1
       12717.929       235.84429       20.359108       1
       12740.413       222.08132       18.697350       1
       12762.896       241.65046       19.859501       1
       12785.380       263.23673       18.791271       1
       12807.863       218.05380       19.634502       1
       12830.347       243.77308       18.349605       1
       12852.830       218.18665       19.307645       1
       12875.314       235.13480       18.216011       1
       12897.798       276.25787       19.777971       1
       12920.281       232.76905       18.043521       1
       12942.765       179.34787       18.535797       1
       12965.248       270.27648       18.347748       1
       12987.732       239.00982       18.947209       1
       13010.215       234.80337       17.649855       1
       13032.699       236.06977       18.571942       1
       13055.182       227.89488       17.488435       1
       13077.666       214.89771       18.350209       1
       13100.149       241.32810       17.491357       1
       13122.633       204.09083       18.066531       1
       13145.116       203.02208       16.888024       1
       13167.600       207.38780       17.889333       1
       13190.083       217.73835       17.034700       1
       13212.567       209.67339       17.703897       1
       13235.051       229.49022       16.799919       1
       13257.534       194.99774       17.411842       1
       13280.018       240.93327       16.903501       1
       13302.501       218.97646       17.507733       1
       13324.985       244.15238       16.679842       1
       13347.468       237.47172       17.580687       1
       13369.952       208.70655       16.433544       1
       13392.435       199.09181       17.082837       1
       13414.919       222.47653       16.381189       1
       13437.402       211.35320       17.089524       1
       13459.886       206.61811       14.782240       1
       13482.369       189.83343       16.730719       1
       13504.853       209.11453       15.472261       1
       13527.336       204.99753       16.720702       1
       13549.820       185.92601       15.763522       1
       13572.303       235.25379       16.934683       1
       13594.787       204.54420       16.034282       1
       13617.271       192.49772       16.497761       1
       13639.754       223.79525       16.036106       1
       13662.238       197.60408       17.676234       1
       13684.721       206.02742       15.903620       1
       13707.205       201.86389       17.629008       1
       13729.688       238.35415       16.287683       1
       13752.172       203.15852       16.520162       1
       13774.655       213.70669       16.049453       1
       13797.139       191.91621       16.456697       1
       13819.622       211.69486       16.071606       1
       13842.106       208.35398       16.509725       1
       13864.589       238.41419       16.288545       1
       13887.073       210.67267       16.473592       1
       13909.556       240.49196       16.221060       1
       13932.040       226.21246       16.590260       1
       13954.523       217.34115       15.834747       1
       13977.007       195.62344       16.016716       1
       13999.491       227.22521       15.616811       1
       14021.974       200.94417       16.082063       1
       14044.458       227.47612       15.541008       1
       14066.941       190.13171       15.803963       1
       14089.425       217.27797       15.537946       1
       14111.908       192.50169       15.650127       1
       14134.392     -0.70819827       0.0000000       1
       14156.875       180.49094       15.512471       1
       14179.359       222.17293       15.427375       1
       14201.842       188.51107       15.450052       1
       14224.326       183.30054       14.971946       1
       14246.809       202.93552       15.501670       1
       14269.293       210.52365       15.151874       1
       14291.776       175.67245       15.082666       1
       14314.260       253.37397       15.483800       1
       14336.744       183.58412       15.102205       1
       14359.227       209.29703       14.959833       1
       14381.711       203.11248       15.108016       1
       14404.194       201.44483       14.870284       1
       14426.678       196.16049       15.147901       1
       14449.161       220.48616       14.977694       1
       14471.645       215.64700       15.217476       1
       14494.128       215.96744       14.889028       1
       14516.612       188.10181       14.580109       1
       14539.095       180.98633       14.591560       1
       14561.579       185.06924       14.771518       1
       14584.062       202.53070       14.836057       1
       14606.546       182.35472       14.627980       1
       14629.029       193.92442       14.840681       1
       14651.513       147.87033       14.325818       1
       14673.996       209.74453       14.949574       1
       14696.480       165.40364       14.473548       1
       14718.964       206.52276       14.956548       1
       14741.447       160.21220       14.296145       1
       14763.931       208.64954       14.928277       1
       14786.414       181.39719       14.594779       1
       14808.898       197.83259       14.795778       1
       14831.381       180.22467       14.637246       1
       14853.865       190.42328       8919034.5       1
       14876.348       155.53425       14.342096       1
       14898.832       199.17476       14.571513       1
       14921.315       155.00127       14.239812       1
       14943.799       197.42271       14.569356       1
       14966.282       175.06999       14.295080       1
       14988.766       178.04995       14.282513       1
       15011.249       136.40278       13.785911       1
       15033.733       174.84317       14.201815       1
       15056.216       167.43570       14.114335       1
       15078.700       184.17543       14.268789       1
       15101.184       182.43215       14.247770       1
       15123.667       198.05728       14.393335       1
       15146.151       175.43291       14.233344       1
       15168.634       201.90993       14.638385       1
       15191.118       217.40524       13.736191       1
       15213.601       181.86524       14.327558       1
       15236.085       195.42041       13.572646       1
       15258.568       211.42656       14.651024       1
       15281.052       212.31463       13.764753       1
       15303.535       202.42096       14.496071       1
       15326.019       163.55138       13.318021       1
       15348.502       172.06824       14.270447       1
       15370.986       188.78692       13.610888       1
       15393.469       195.34595       14.539380       1
       15415.953       188.37346       13.625717       1
       15438.437       182.26088       14.140112       1
       15460.920       1.0427774       0.0000000       1
       15483.404       190.54801       14.282991       1
       15505.887       200.42392       13.751207       1
       15528.371       196.92738       14.628307       1
       15550.854       200.91930       13.782864       1
       15573.338       185.16827       14.256714       1
       15595.821       211.13156       13.857554       1
       15618.305       237.35000       14.855599       1
       15640.788       194.55847       13.624170       1
       15663.272       180.03705       14.371312       1
       15685.755       201.88942       13.471762       1
       15708.239       192.56214       14.365961       1
       15730.722       195.39109       13.589168       1
       15753.206       190.15130       13.829885       1
       15775.689       193.90513       13.363780       1
       15798.173       176.79101       8566421.4       1
       15820.657       199.31272       13.523589       1
       15843.140   -0.0062413905       0.0000000       1
       15865.624       188.26165       13.409887       1
       15888.107       199.06188       14.078151       1
       15910.591       154.29081       13.106169       1
       15933.074       177.95507       14.338531       1
       15955.558       178.91028       13.531149       1
       15978.041       198.20886       14.448590       1
       16000.525       227.15089       14.010167       1
       16023.008       208.19590       14.756252       1
       16045.492       197.24774       13.555092       1
       16067.975       187.97853       14.457601       1
       16090.459       237.74104       14.010207       1
       16112.942       179.45023       14.511245       1
       16135.426       199.86992       13.839680       1
       16157.909       182.81151       14.598612       1
       16180.393       194.17783       13.387711       1
       16202.877       184.19304       14.728985       1
       16225.360       185.71460       13.743549       1
       16247.844       200.97207       14.950970       1
       16270.327       207.82613       14.138876       1
       16292.811       183.42957       14.825716       1
       16315.294       194.94493       14.108820       1
       16337.778       168.75255       14.820917       1
       16360.261       175.46838       13.393148       1
       16382.745       185.90065       15.008863       1
       16405.228       184.80189       14.042449       1
       16427.712       204.27713       9027990.6       1
       16450.195       196.63501       14.358035       1
       16472.679       165.57619       15.012739       1
       16495.162       193.31286       14.661324       1
       16517.646       224.43806       16.252648       1
       16540.129       181.47005       15.379592       1
       16562.613       203.36961       17.286862       1
       16585.097       192.68538       16.974038       1
       16607.580       204.32648       19.234228       1
       16630.064       186.63168       19.273274       1
       16652.547       169.17175       22.046263       1
       16675.031       154.90991       22.630369       1
       16697.514       252.80888       26.990510       1
       16719.998       209.52790       28.535028       1
       16742.481       163.18579       33.295027       1
       16764.965       118.84725       35.271211       0
       16787.448       190.46055       43.578195       0
       16809.932       249.41850       46.902537       0
       16832.415       188.74555       55.109864       0
       16854.899       173.79672       57.368117       0
       16877.382       183.57417       68.766696       0
       16899.866       80.315259       69.541638       0
       16922.350       247.71080       85.332101       0
       16944.833       249.17629       88.993291       0
       16967.317       311.47295       105.74542       0
       16989.800       118.81684       108.00833       0
       17012.284       105.51582       127.65627       0
       17034.767       172.76714       133.15064       0
       17057.251       231.73093       158.64145       0
       17079.734       263.90889       165.27638       0
       17102.218       22.304411       197.56589       0
       17124.701       216.60814       214.91016       0
       17147.185       141.55346       260.80543       0
       17169.668       391.77422       281.11462       0
