#WAVELENGTH FLUX ERROR MASK
       10177.290       3299.1802       3437.2738       0
       10199.774       1448.9692       3374.9614       0
       10222.257       1824.2959       2756.7980       0
       10244.741       523.30112   1.1711727e+09       0
       10267.224      -927.45595       2029.1303       0
       10289.708      -196.52567       1911.2773       0
       10312.192       912.12376       1557.7719       0
       10334.675      -1079.0771       1493.6141       0
       10357.159      -261.58356       1245.0022       0
       10379.642       432.87160       1266.5328       0
       10402.126       312.75980       1052.8015       0
       10424.609       132.38673       1047.5508       0
       10447.093       1135.4156       854.74779       0
       10469.576      -688.45823       778.05962       0
       10492.060       852.02817       622.93379       0
       10514.543       65.286506       565.19964       0
       10537.027       595.42719       451.87264       0
       10559.510       302.73100       425.34231       0
       10581.994       305.36115       344.74470       0
       10604.477       100.97922       336.95637       0
       10626.961       264.53524       277.94471       0
       10649.444       314.40463       275.19636       0
       10671.928       98.617569       158.77283       0
       10694.412       405.34331       216.75896       0
       10716.895       346.43048       167.17474       0
       10739.379       236.04311       149.74311       0
       10761.862       184.85794       117.12356       0
       10784.346       182.57462       106.90333       0
       10806.829       284.52723       84.586138       0
       10829.313       239.85882       79.426314       0
       10851.796       135.20764       46.689031       0
       10874.280       183.69306       63.720767       0
       10896.763       187.61449       53.946353       0
       10919.247       163.64221       54.538787       0
       10941.730       251.53678       48.286433       0
       10964.214       176.61556       48.441129       0
       10986.697       224.15974       42.119395       0
       11009.181       188.77584       42.272334       1
       11031.665       126.27027       26.244766       1
       11054.148       176.30678       37.380800       1
       11076.632       213.04334       33.033554       1
       11099.115       215.52950       34.678468       1
       11121.599       213.40771       30.443161       1
       11144.082       176.57269       31.446170       1
       11166.566       191.18511       28.447634       1
       11189.049       193.62076       30.795470       1
       11211.533       219.52520       27.978296       1
       11234.016       188.80897       29.999243       1
       11256.500       198.09240       27.046449       1
       11278.983       194.42369       29.925181       1
       11301.467       218.53877       26.879733       1
       11323.950       86.490584       22.027664       1
       11346.434       233.17000       26.729433       1
       11368.917       99.163230       19.098819       1
       11391.401       171.22043       25.635560       1
       11413.885      -4.9651095       0.0000000       1
       11436.368       214.51608       24.931237       1
       11458.852      -5.7969924       0.0000000       1
       11481.335       200.91791       24.623688       1
       11503.819       35.910531       17.544219       1
       11526.302       96.936549       17.856093       1
       11548.786       179.78732       27.942634       1
       11571.269       195.90136       25.120024       1
       11593.753       159.27156       27.315772       1
       11616.236       203.60570       24.863204       1
       11638.720       180.90709       26.832621       1
       11661.203       196.45694       24.255522       1
       11683.687       192.84150       26.121806       1
       11706.170       205.14054       23.803334       1
       11728.654       176.38010       28.234742       1
       11751.137       215.87104       23.461719       1
       11773.621       206.61685       25.311025       1
       11796.105       195.27469       22.700581       1
       11818.588       206.80993       24.571994       1
       11841.072       231.33717       22.796131       1
       11863.555       202.26179       24.138837       1
       11886.039       224.84152       22.331790       1
       11908.522       207.83877       24.057100       1
       11931.006       233.95992       22.125273       1
       11953.489       215.27225       23.710745       1
       11975.973       225.35632       21.777662       1
       11998.456       207.92151       23.268014       1
       12020.940       219.96925       21.319935       1
       12043.423       191.08088       22.794297       1
       12065.907       204.60331       20.932652       1
       12088.390       175.83657       22.239749       1
       12110.874       219.46661       20.897840       1
       12133.358       150.00916       21.824389       1
       12155.841       205.30966       20.520871       1
       12178.325       183.34578       21.695529       1
       12200.808       216.28351       20.673310       1
       12223.292       196.19692       19.191845       1
       12245.775       208.31531       20.374536       1
       12268.259       207.91282       19.049691       1
       12290.742       210.15817       20.204798       1
       12313.226       196.65245       18.736224       1
       12335.709       183.48405       19.709951       1
       12358.193       208.62761       18.734093       1
       12380.676       208.12902       19.700727       1
       12403.160       214.11439       18.505969       1
       12425.643       198.95565       19.415686       1
       12448.127       215.72435       18.456452       1
       12470.610       201.58447       19.441766       1
       12493.094       186.65535       17.991010       1
       12515.578       220.51731       19.509004       1
       12538.061       168.37796       17.601902       1
       12560.545       209.78427       19.180843       1
       12583.028       181.00039       17.780675       1
       12605.512       199.71679       18.989765       1
       12627.995       187.09600       17.838917       1
       12650.479       217.15215       19.156446       1
       12672.962       149.63500       17.199514       1
       12695.446       211.49141       18.963011       1
       12717.929       196.11614       17.594946       1
       12740.413       214.98606       18.714744       1
       12762.896       188.19361       17.280310       1
       12785.380       222.39140       18.498643       1
       12807.863       184.56819       17.012382       1
       12830.347       106.44197       12.931143       1
       12852.830       203.12070       17.038473       1
       12875.314       202.24490       18.093453       1
       12897.798       211.88921       17.156165       1
       12920.281       222.61617       18.183532       1
       12942.765       188.16548       16.777093       1
       12965.248       214.55281       17.843591       1
       12987.732       187.19798       16.519403       1
       13010.215       208.73748       17.640490       1
       13032.699       186.69694       16.337710       1
       13055.182       204.63148       17.441298       1
       13077.666       180.81352       16.156730       1
       13100.149       193.63330       17.176282       1
       13122.633       208.18779       16.321151       1
       13145.116       182.43062       17.021966       1
       13167.600       189.13404       15.897861       1
       13190.083       168.26772       16.642026       1
       13212.567       194.91280       15.816349       1
       13235.051       174.01763       16.522664       1
       13257.534       194.37826       15.673951       1
       13280.018       178.61294       16.358128       1
       13302.501       193.89695       15.632136       1
       13324.985       193.25572       16.566955       1
       13347.468       95.950849       10.974919       1
       13369.952       174.11847       16.341464       1
       13392.435       184.69701       15.288084       1
       13414.919       189.01764       16.308265       1
       13437.402       186.67519       15.231392       1
       13459.886       180.23616       16.100373       1
       13482.369       226.67231       15.460133       1
       13504.853       155.88511       15.773332       1
       13527.336       179.07569       14.998966       1
       13549.820       187.21252       15.969965       1
       13572.303       164.71209       14.812282       1
       13594.787       180.65084       15.916565       1
       13617.271       183.90042       14.954342       1
       13639.754       175.91600       15.929885       1
       13662.238       183.47175       15.058522       1
       13684.721       184.12534       15.899949       1
       13707.205       63.441432       10.320866       1
       13729.688       201.14141       16.122051       1
       13752.172       166.79503       14.733147       1
       13774.655       178.59239       15.995046       1
       13797.139       188.75577       15.008879       1
       13819.622       186.04985       15.922135       1
       13842.106       190.18907       15.008354       1
       13864.589       198.45924       16.100925       1
       13887.073       175.40287       14.865593       1
       13909.556       195.80727       15.938773       1
       13932.040       195.59441       14.962246       1
       13954.523       195.09993       15.864287       1
       13977.007       201.60879       14.883786       1
       13999.491       181.79520       15.555553       1
       14021.974       174.37417       14.488402       1
       14044.458       197.41932       15.650009       1
       14066.941       182.33875       14.485756       1
       14089.425       171.18583       15.236260       1
       14111.908       174.61937       14.305866       1
       14134.392       191.60899       15.353860       1
       14156.875       186.90865       14.402998       1
       14179.359       152.23529       14.985561       1
       14201.842       178.11016       14.308635       1
       14224.326       197.10577       15.302170       1
       14246.809       166.83132       14.120057       1
       14269.293       168.33515       15.015227       1
       14291.776       184.07763       14.072177       1
       14314.260       182.63460       14.987938       1
       14336.744       186.89655       14.013778       1
       14359.227       182.44352       14.950889       1
       14381.711       177.20902       14.027396       1
       14404.194       177.45377       14.821216       1
       14426.678       172.39747       13.887093       1
       14449.161       182.36971       14.886172       1
       14471.645       167.85771       13.889078       1
       14494.128       182.14820       14.892294       1
       14516.612       163.42905       13.839258       1
       14539.095       176.65450       14.757579       1
       14561.579       146.40265       13.634394       1
       14584.062       180.88047       14.583414       1
       14606.546       154.25472       13.599326       1
       14629.029       174.91385       14.792062       1
       14651.513       151.31712       13.664638       1
       14673.996       168.12553       14.707414       1
       14696.480       162.74935       13.843047       1
       14718.964       160.53856       14.664223       1
       14741.447       168.25167       13.743220       1
       14763.931       143.05977       14.508245       1
       14786.414       151.64106       13.701330       1
       14808.898       150.23134       14.590863       1
       14831.381       156.36789       13.630045       1
       14853.865       147.94157       14.394294       1
       14876.348       152.78813       13.561125       1
       14898.832       144.97068       14.247840       1
       14921.315       144.43588       13.342226       1
       14943.799       159.44721       14.327311       1
       14966.282       158.06969       13.361680       1
       14988.766       157.33680       14.300286       1
       15011.249       170.89467       13.575697       1
       15033.733       168.93137       14.361644       1
       15056.216       141.10539       13.228070       1
       15078.700       168.86753       14.114153       1
       15101.184       156.43510       13.334997       1
       15123.667       162.39787       14.355524       1
       15146.151       148.22169       13.226162       1
       15168.634       188.56430       14.297741       1
       15191.118       75.297616       9.8132935       1
       15213.601       185.04906       14.279636       1
       15236.085       145.31093       13.737799       1
       15258.568       166.18814       14.009306       1
       15281.052       179.16919       14.097007       1
       15303.535       181.95559       14.144711       1
       15326.019       166.39588       13.931755       1
       15348.502       160.07716       14.018889       1
       15370.986       159.05057       13.960721       1
       15393.469       173.90841       14.121387       1
       15415.953       164.62559       14.028708       1
       15438.437       159.62711       14.099462       1
       15460.920       162.13496       14.046234       1
       15483.404       177.33861       14.185956       1
       15505.887       158.31683       14.032963       1
       15528.371       164.71998       6148224.6       1
       15550.854       173.47164       14.130256       1
       15573.338       176.63212       14.213223       1
       15595.821       159.39754       14.117186       1
       15618.305       152.45640       13.875165       1
       15640.788       158.36908       13.969079       1
       15663.272       159.72896       13.896474       1
       15685.755       170.11861       14.098557       1
       15708.239       173.14223       13.959878       1
       15730.722       162.85216       13.896739       1
       15753.206       175.77466       14.075648       1
       15775.689       171.32690       13.898623       1
       15798.173       173.42017       13.906697       1
       15820.657       160.83484       13.902788       1
       15843.140       87.505552       9.9173784       1
       15865.624       187.26916       14.102830       1
       15888.107       174.54807       13.915669       1
       15910.591       171.91288       13.707758       1
       15933.074       171.18740       13.972776       1
       15955.558       170.82801       14.103631       1
       15978.041       181.95925       14.209999       1
       16000.525       163.49676       14.087980       1
       16023.008       166.10825       15.852589       1
       16045.492       151.16841       13.894875       1
       16067.975       80.925119       9.9222379       1
       16090.459       159.51104       14.014898       1
       16112.942       84.548573       10.035067       1
       16135.426       178.80542       14.271919       1
       16157.909       146.19794       14.031735       1
       16180.393       153.81942       14.193353       1
       16202.877       171.25189       13.938680       1
       16225.360       144.87046       14.186937       1
       16247.844       158.30133       14.304528       1
       16270.327       167.28956       14.468455       1
       16292.811       166.19319       14.537821       1
       16315.294       158.51656       14.495617       1
       16337.778       181.43076       14.585136       1
       16360.261       149.45194       14.459036       1
       16382.745       158.72165       14.557615       1
       16405.228       159.63906       14.315138       1
       16427.712       162.38459       14.460586       1
       16450.195       160.68965       14.625400       1
       16472.679       174.63890       14.827743       1
       16495.162       159.97583       15.055763       1
       16517.646       173.14284       15.510344       1
       16540.129       145.51629       15.804845       1
       16562.613       180.94308       16.788910       1
       16585.097       87.547250       12.527568       1
       16607.580       176.08774       18.728407       1
       16630.064       172.08980       20.047607       1
       16652.547       170.94048       21.800975       1
       16675.031       171.63839       23.922877       1
       16697.514       171.29442       26.569711       1
       16719.998       178.86566       29.659095       1
       16742.481       141.49615       32.940333       1
       16764.965       166.74770       37.243923       0
       16787.448       138.09015       42.305389       0
       16809.932       152.40109       47.518525       0
       16832.415       175.31590       54.147151       0
       16854.899       166.63208       59.858956       0
       16877.382       219.38948       67.749488       0
       16899.866       133.99932       74.432652       0
       16922.350       159.29602       81.862593       0
       16944.833       119.57562       91.691023       0
       16967.317       138.80711       102.14070       0
       16989.800       120.14790       113.68149       0
       17012.284       190.54715       125.31524       0
       17034.767       45.483814       138.40621       0
       17057.251       104.37028       153.96263       0
       17079.734       100.52678       173.12662       0
       17102.218       232.01337       195.95397       0
       17124.701       40.923877       222.84191       0
       17147.185       46.581480       251.66145       0
       17169.668       62.155712       293.88029       0
