#WAVELENGTH FLUX ERROR MASK
       10253.328       1145.6092       2680.4152       0
       10276.757       703.15433       2290.7974       0
       10300.187       818.57725       1984.1131       0
       10323.616       499.01265       1757.2099       0
       10347.046       1245.8854       1586.5060       0
       10370.475       191.45528       1439.3824       0
       10393.905       226.94022       1311.7978       0
       10417.334       366.58777       1187.6410       0
       10440.764       516.99343       1056.9820       0
       10464.193       378.82826       893.77842       0
       10487.623       257.76646       718.22955       0
       10511.052       4.9763136       631.92390       0
       10534.482       568.62019       536.70828       0
       10557.911       49.961598       464.51826       0
       10581.341       311.63996       410.39307       0
       10604.770       243.09727       364.72517       0
       10628.200       237.37832       328.35120       0
       10651.629      -1.7196976       276.67493       0
       10675.059       245.31200       260.01772       0
       10698.488       203.23039       221.89090       0
       10721.918       162.91500       188.48988       0
       10745.347       124.73345       156.83790       0
       10768.777       171.15658       130.69057       0
       10792.206       81.179247       108.93612       0
       10815.636       72.915943       92.735769       0
       10839.065       53.604205       80.310944       0
       10862.495       92.592991       72.092089       0
       10885.924       53.927945       65.090775       0
       10909.354       55.119597       60.016031       0
       10932.783       78.205890       56.285481       0
       10956.213       80.961038       52.437966       0
       10979.642       68.115958       49.205463       0
       11003.072       42.249569       45.134342       1
       11026.501       43.669029       40.156588       1
       11049.931       70.920586       39.885527       1
       11073.360       56.623739       37.336698       1
       11096.789       44.032172       35.544433       1
       11120.219       56.230694       34.077112       1
       11143.648       48.079360       32.970792       1
       11167.078       66.986621       32.035955       1
       11190.507       58.562403       31.673604       1
       11213.937       45.869156       31.178429       1
       11237.366       40.323887       30.701506       1
       11260.796       64.397519       30.772204       1
       11284.225       39.589399       30.117848       1
       11307.655       62.502704       30.090418       1
       11331.084       52.416344       29.615248       1
       11354.514       53.775505       29.344550       1
       11377.943       43.179528       28.901151       1
       11401.373       68.841854       28.959704       1
       11424.802       52.284333       28.420175       1
       11448.232       58.596178       28.437703       1
       11471.661       59.714811       28.235857       1
       11495.091       67.815709       28.252690       1
       11518.520       44.508286       27.875361       1
       11541.950       38.531279       27.767670       1
       11565.379       65.858860       27.861697       1
       11588.809       69.849057       27.827857       1
       11612.238       57.081530       27.396439       1
       11635.668       50.069766       27.209829       1
       11659.097       44.232217       5395149.0       1
       11682.527       61.689822       26.643988       1
       11705.956       42.502137       26.164359       1
       11729.386       52.196823       25.864606       1
       11752.815       56.275199       25.662935       1
       11776.245       38.210005       23.907918       1
       11799.674       57.670721       25.073822       1
       11823.104       34.820649       24.537901       1
       11846.533       45.772413       24.481484       1
       11869.963       47.332509       23.048830       1
       11893.392       42.798712       23.934482       1
       11916.822       61.654969       24.091541       1
       11940.251       51.652108       23.785048       1
       11963.681       48.674914       23.619830       1
       11987.110       52.710347       23.441974       1
       12010.540       49.782853       23.282788       1
       12033.969       55.099819       23.096042       1
       12057.399       50.746350       22.943695       1
       12080.828       55.118951       22.763638       1
       12104.258       40.852462       22.561613       1
       12127.687       35.456089       21.203328       1
       12151.117       53.352240       22.426114       1
       12174.546       39.296162       22.081934       1
       12197.976       52.861021       22.139366       1
       12221.405       48.175122       22.188314       1
       12244.835       53.893289       21.876478       1
       12268.264       36.661491       21.508302       1
       12291.694       39.871517       21.507021       1
       12315.123       28.578853       20.041368       1
       12338.553       47.621260       21.299166       1
       12361.982       46.343514       21.162775       1
       12385.412       49.971272       21.182531       1
       12408.841       48.064688       21.027840       1
       12432.271       50.643429       20.935390       1
       12455.700       45.522816       20.744053       1
       12479.130       40.995048       20.588885       1
       12502.559       49.977654       20.629886       1
       12525.988       42.856035       20.490494       1
       12549.418       42.189396       20.495572       1
       12572.847       50.030622       20.489912       1
       12596.277       37.679612       19.218911       1
       12619.706       45.943911       20.316228       1
       12643.136       44.896696       20.276251       1
       12666.565       50.695143       20.213062       1
       12689.995       43.286543       20.032565       1
       12713.424       43.038901       18.975392       1
       12736.854       52.309918       19.734795       1
       12760.283       44.083366       19.633116       1
       12783.713       42.491862       19.327390       1
       12807.142       43.846125       19.390829       1
       12830.572       55.141783       19.445414       1
       12854.001       55.774392       19.357081       1
       12877.431       50.567329       19.261367       1
       12900.860       41.409519       19.067813       1
       12924.290       41.581727       19.046282       1
       12947.719       36.934331       17.849423       1
       12971.149       41.307790       18.699913       1
       12994.578       44.962628       18.697007       1
       13018.008       41.263192       18.451826       1
       13041.437       44.478432       18.404346       1
       13064.867       50.848958       18.355046       1
       13088.296       49.809557       18.362799       1
       13111.726       48.664346       18.202342       1
       13135.155       32.113975       17.877734       1
       13158.585       44.532478       17.898156       1
       13182.014       36.918221       17.764375       1
       13205.444       44.595222       17.732712       1
       13228.873       32.702671       16.515448       1
       13252.303       40.715791       17.531355       1
       13275.732       42.900202       17.444127       1
       13299.162       35.953324       17.311845       1
       13322.591       43.315995       3520594.9       1
       13346.021       39.289582       17.294856       1
       13369.450       45.657985       17.431997       1
       13392.880       43.296716       17.228783       1
       13416.309       41.355652       17.141745       1
       13439.739       48.423906       17.067528       1
       13463.168       44.584677       16.938214       1
       13486.598       38.234789       16.808284       1
       13510.027       44.375500       16.937070       1
       13533.457       42.068186       16.716219       1
       13556.886       58.525155       16.880607       1
       13580.316       39.863371       16.568000       1
       13603.745       46.563191       16.690214       1
       13627.175       38.168995       16.552156       1
       13650.604       42.038728       16.647669       1
       13674.034       42.550304       16.641871       1
       13697.463       43.551429       16.611968       1
       13720.893       43.809157       16.555480       1
       13744.322       50.388094       16.672511       1
       13767.752       44.669255       16.629407       1
       13791.181       49.778643       16.667641       1
       13814.611       48.096735       16.646687       1
       13838.040       49.885580       16.666878       1
       13861.470       49.592982       3384356.3       1
       13884.899       55.950882       16.680915       1
       13908.328       57.494132       16.659209       1
       13931.758       55.169496       16.538507       1
       13955.187       59.405558       15.716492       1
       13978.617       62.929493       16.519186       1
       14002.046       67.357633       16.531653       1
       14025.476       62.000911       16.328568       1
       14048.905       68.064636       16.372684       1
       14072.335       55.555289       15.301966       1
       14095.764       75.169098       16.261536       1
       14119.194       72.458703       16.186500       1
       14142.623       87.385803       16.293093       1
       14166.053       77.267179       16.148853       1
       14189.482       88.339601       16.263107       1
       14212.912       70.324427       16.042357       1
       14236.341       72.322601       16.044857       1
       14259.771       62.150615       15.822119       1
       14283.200       59.528850       15.688428       1
       14306.630       52.430353       15.555441       1
       14330.059       50.572414       15.446997       1
       14353.489       55.009168       15.506540       1
       14376.918       51.484110       15.450918       1
       14400.348       45.481568       15.396026       1
       14423.777       48.487820       15.345805       1
       14447.207       49.266368       15.401171       1
       14470.636       58.700724       15.505632       1
       14494.066       50.666380       3132747.3       1
       14517.495       54.185897       15.466394       1
       14540.925       47.832745       15.349173       1
       14564.354       36.703580       15.209423       1
       14587.784       48.495728       15.303893       1
       14611.213       39.283681       14.049533       1
       14634.643       46.217308       15.324127       1
       14658.072       39.237919       14.384251       1
       14681.502       35.636772       15.188002       1
       14704.931       39.200199       14.442878       1
       14728.361       44.798923       15.302302       1
       14751.790       34.775158       14.457132       1
       14775.220       43.349795       15.282861       1
       14798.649       37.046968       14.435988       1
       14822.079       41.376097       15.246171       1
       14845.508       46.969745       15.289952       1
       14868.938       38.954627       14.356177       1
       14892.367       37.888637       3099236.6       1
       14915.797       34.309822       14.993159       1
       14939.226       30.322498       14.878240       1
       14962.656       33.120549       14.048014       1
       14986.085       34.750470       14.688742       1
       15009.515       38.289966       14.850037       1
       15032.944       39.001935       14.805381       1
       15056.374       38.687045       14.868534       1
       15079.803       30.992699       14.708213       1
       15103.233       32.165451       14.731608       1
       15126.662       31.804253       14.692184       1
       15150.092       33.961690       14.656249       1
       15173.521       35.774220       14.703618       1
       15196.951       36.097551       14.710381       1
       15220.380       37.194222       14.536663       1
       15243.810       41.805006       14.695362       1
       15267.239       39.227927       14.580364       1
       15290.669       35.606135       14.624318       1
       15314.098       34.372501       14.641730       1
       15337.527       35.419936       14.676370       1
       15360.957       38.534244       14.701082       1
       15384.386       25.895528       14.478126       1
       15407.816       32.069172       14.627393       1
       15431.245       32.070156       14.630881       1
       15454.675       34.269917       14.644712       1
       15478.104       33.869100       14.711563       1
       15501.534       27.077412       13.811533       1
       15524.963       37.487427       14.752936       1
       15548.393       37.552953       14.705961       1
       15571.822       38.237684       14.750488       1
       15595.252       33.401175       14.720342       1
       15618.681       34.313294       3032575.4       1
       15642.111       31.570573       14.603824       1
       15665.540       31.492910       13.839299       1
       15688.970       39.395374       14.668404       1
       15712.399       38.501519       14.616360       1
       15735.829       37.035878       14.582439       1
       15759.258       41.607460       14.612484       1
       15782.688       34.829145       14.505076       1
       15806.117       37.094939       14.441178       1
       15829.547       30.200597       14.398347       1
       15852.976       36.725240       14.534909       1
       15876.406       32.026350       14.477731       1
       15899.835       36.359896       13.781233       1
       15923.265       35.950931       14.606508       1
       15946.694       36.293723       14.617754       1
       15970.124       34.435061       14.601679       1
       15993.553       29.266315       14.561764       1
       16016.983       33.969324       14.583693       1
       16040.412       38.742859       14.642708       1
       16063.842       36.613536       14.625992       1
       16087.271       36.599919       14.684168       1
       16110.701       39.927372       14.697827       1
       16134.130       34.886679       14.697549       1
       16157.560       29.119495       14.671762       1
       16180.989       27.239701       14.713709       1
       16204.419       33.515540       14.800758       1
       16227.848       32.044166       14.893966       1
       16251.278       35.267527       14.883165       1
       16274.707       33.967493       15.157592       1
       16298.137       39.913621       14.274039       1
       16321.566       26.998199       15.025007       1
       16344.996       42.389091       15.087354       1
       16368.425       28.873118       15.055454       1
       16391.855       30.429610       15.060867       1
       16415.284       36.905228       15.172813       1
       16438.714       36.009752       15.220382       1
       16462.143       32.144833       14.406742       1
       16485.573       32.571504       15.408894       1
       16509.002       34.271485       15.532760       1
       16532.432       25.960066       15.851217       1
       16555.861       35.789735       16.430169       1
       16579.291       30.929045       17.068728       1
       16602.720       24.308136       17.913819       1
       16626.150       28.859106       18.981649       1
       16649.579       28.273524       19.459078       1
       16673.009       36.222955       22.451717       1
       16696.438       32.668072       24.638374       1
       16719.868       26.032258       27.327783       1
       16743.297       39.856607       31.145636       1
       16766.726       34.110021       35.158728       0
       16790.156       40.798842       39.992684       0
       16813.585       24.833492       45.591466       0
       16837.015       27.784399       10973531.       0
       16860.444       25.166853       58.735608       0
       16883.874       37.467867       66.422138       0
       16907.303       40.284110       70.085242       0
       16930.733       32.525869       82.781660       0
       16954.162       24.831369       93.000615       0
       16977.592       32.044046       103.83126       0
       17001.021       45.912236       115.81941       0
       17024.451       58.591660       129.89208       0
       17047.880       15.722448       143.84427       0
       17071.310       7.0645304       150.73846       0
       17094.739       79.955703       169.15914       0
       17118.169       140.67050       202.56853       0
       17141.598       26.982032       228.56838       0
       17165.028       2.5641884       231.92738       0
       17188.457       104.36912       64392487.       0
       17211.887      -18.224447       349.72033       0
       17235.316       11.403875       399.18410       0
       17258.746       86.299824       450.67664       0
       17282.175       224.95284       506.86454       0
       17305.605      -220.43126       556.67148       0
       17329.034       208.19219       619.76410       0
       17352.464       3.7107154       679.66787       0
       17375.893      -181.08663       760.59412       0
       17399.323       183.63434       852.68119       0
       17422.752      -170.85900       925.81232       0
       17446.182      -40.763311       1012.3587       0
       17469.611       204.19700       1140.2575       0
       17493.041      -123.33386       1315.2336       0
       17516.470       99.026043       1625.0357       0
       17539.900      -137.78835       2123.2005       0
