#WAVELENGTH FLUX ERROR MASK
       7522.8590       1144.0016       14413.533       0
       7535.3738       25631.277       15755.855       0
       7547.8885       9216.6447       9014.9140       0
       7560.4033       9859.0084       8936.5135       0
       7572.9181       5092.9203       5613.1284       0
       7585.4328       1835.1390       5589.0954       0
       7597.9476       5097.5822       3693.8914       0
       7610.4624      -1797.5141       3787.6981       0
       7622.9772       2681.3164       2616.9111       0
       7635.4919       736.17193       2784.6406       0
       7648.0067       855.13054       1921.9268       0
       7660.5215      -1293.9393       2015.9377       0
       7673.0362       303.48856       1370.5697       0
       7685.5510       294.25389       1406.2389       0
       7698.0658       881.81673       952.48556       0
       7710.5805       323.41202       991.09679       0
       7723.0953       842.91533       759.00066       0
       7735.6101       848.89869       770.09653       0
       7748.1248       224.46693       563.15860       0
       7760.6396       530.50249       638.31723       0
       7773.1544       571.26716       479.91186       0
       7785.6691       513.44174       542.64058       0
       7798.1839       521.13380       400.01929       0
       7810.6987       403.12788       443.19862       0
       7823.2135       276.01118       321.54291       0
       7835.7282       403.12825       411.77892       0
       7848.2430       73.537179       298.08165       0
       7860.7578       228.65822       286.70300       0
       7873.2725       446.47838       214.42508       0
       7885.7873       423.65981       243.93600       0
       7898.3021       251.15192       183.30863       0
       7910.8168       332.82805       213.65428       0
       7923.3316       82.760540       161.99649       0
       7935.8464       295.40345       191.44651       0
       7948.3611       289.12359       147.99667       0
       7960.8759       251.28448       173.79787       0
       7973.3907       553.00217       136.75551       0
       7985.9054       409.37121       161.02568       0
       7998.4202       293.15308       125.13393       0
       8010.9350       343.41847       149.62035       0
       8023.4497       291.45432       117.74722       0
       8035.9645       310.56997       141.19439       0
       8048.4793       251.33392       112.20576       0
       8060.9941       344.66765       136.11529       0
       8073.5088       173.80146       107.53909       0
       8086.0236       222.38603       130.91011       0
       8098.5384       194.56778       104.58663       0
       8111.0531       308.76710       127.38842       0
       8123.5679       260.93303       100.90550       0
       8136.0827       210.13246       143.76243       0
       8148.5974       196.01713       104.19713       0
       8161.1122       199.81630       117.10272       1
       8173.6270       226.08819       93.530810       1
       8186.1417       344.53619       114.77602       1
       8198.6565       157.93449       90.602032       1
       8211.1713       115.83702       108.19200       1
       8223.6860       232.31238       87.224319       1
       8236.2008       128.44147       102.85342       1
       8248.7156       221.00735       81.903423       1
       8261.2303       275.92213       98.839047       1
       8273.7451       228.40454       78.079178       1
       8286.2599       292.22174       94.652516       1
       8298.7747       245.92037       74.603413       1
       8311.2894       175.17830       89.450681       1
       8323.8042       185.40126       73.244767       1
       8336.3190       187.75202       85.997969       1
       8348.8337       151.23557       68.851942       1
       8361.3485       205.01221       84.367900       1
       8373.8633       221.96559       67.532735       1
       8386.3780       160.22828       81.436437       1
       8398.8928       157.32534       65.108630       1
       8411.4076       200.27424       80.624067       1
       8423.9223       182.19024       63.679542       1
       8436.4371       154.19728       76.766301       1
       8448.9519       157.01229       61.428304       1
       8461.4666       231.91102       75.070982       1
       8473.9814       128.10268       58.994776       1
       8486.4962       167.83176       72.106995       1
       8499.0110       143.16045       57.745493       1
       8511.5257       153.71370       70.333092       1
       8524.0405       179.05481       56.161976       1
       8536.5553       218.08185       69.745192       1
       8549.0700       228.05478       60.352591       1
       8561.5848       216.07806       68.791907       1
       8574.0996       231.01618       55.041641       1
       8586.6143       202.01909       67.642242       1
       8599.1291       201.58574       54.268418       1
       8611.6439       233.62268       67.626747       1
       8624.1586       214.73433       54.339759       1
       8636.6734       248.05580       67.225215       1
       8649.1882       222.17419       58.338292       1
       8661.7029       207.55722       76.563232       1
       8674.2177       254.05765       52.685732       1
       8686.7325       156.41544       63.600161       1
       8699.2472       209.64796       50.506846       1
       8711.7620       242.89809       62.410049       1
       8724.2768       176.70091       48.788328       1
       8736.7916       163.53315       59.671947       1
       8749.3063       187.96156       47.299580       1
       8761.8211       145.15571       57.782763       1
       8774.3359       224.95606       46.517681       1
       8786.8506       183.43658       56.927159       1
       8799.3654       191.45122       52.587625       1
       8811.8802       166.84899       55.858108       1
       8824.3949       200.30969       44.690599       1
       8836.9097       165.79282       54.671892       1
       8849.4245       120.19022       43.032240       1
       8861.9392       143.00550       53.302703       1
       8874.4540       196.96922       42.670422       1
       8886.9688       174.65223       52.391530       1
       8899.4835       152.67113       41.711081       1
       8911.9983       192.46063       51.832601       1
       8924.5131       165.96572       41.045679       1
       8937.0279       199.70921       50.968340       1
       8949.5426       160.88599       40.289948       1
       8962.0574       185.69033       50.021262       1
       8974.5722       205.63937       42.971858       1
       8987.0869       200.29736       55.606527       1
       8999.6017       178.06126       38.907236       1
       9012.1165       166.56929       48.016041       1
       9024.6312       162.35967       41.538192       1
       9037.1460       132.02998       60.373299       1
       9049.6608       159.38396       38.254437       1
       9062.1755       151.47959       47.465997       1
       9074.6903       163.44003       37.883039       1
       9087.2051       129.17277       46.559425       1
       9099.7198       185.96511       37.395734       1
       9112.2346       191.77451       45.968271       1
       9124.7494       143.49190       36.349153       1
       9137.2641       101.95165       44.435589       1
       9149.7789       121.22283       35.409735       1
       9162.2937       155.81814       44.101250       1
       9174.8085       157.59832       34.945490       1
       9187.3232       165.02990       43.266889       1
       9199.8380       157.25700       34.235060       1
       9212.3528       169.86739       48.193904       1
       9224.8675       166.18877       34.047831       1
       9237.3823       179.59410       47.434845       1
       9249.8971       167.41685       33.334568       1
       9262.4118       217.56211       41.715722       1
       9274.9266       136.59757       35.451807       1
       9287.4414       155.56092       40.586014       1
       9299.9561       157.73910       32.423232       1
       9312.4709       188.26620       40.361298       1
       9324.9857       161.53532       34.781710       1
       9337.5004       202.55051       40.274354       1
       9350.0152       146.15282       32.136529       1
       9362.5300       195.76928       39.694982       1
       9375.0448       179.93863       31.959335       1
       9387.5595       179.26462       39.250130       1
       9400.0743       153.34903       32.072446       1
       9412.5891       173.16644       38.730199       1
       9425.1038       192.52174       34.006297       1
       9437.6186       119.86140       37.793358       1
       9450.1334       149.28132       30.673319       1
       9462.6481       149.70541       37.425736       1
       9475.1629       178.00006       30.451453       1
       9487.6777       172.90988       37.280276       1
       9500.1924       139.07475       29.850481       1
       9512.7072       164.22233       36.884834       1
       9525.2220       169.54049       29.726244       1
       9537.7367       167.05596       36.411371       1
       9550.2515       160.36594       29.351656       1
       9562.7663       174.48280       36.047855       1
       9575.2810       202.86543       29.124773       1
       9587.7958       127.41488       35.108357       1
       9600.3106       148.66488       28.659548       1
       9612.8254       141.31005       35.000287       1
       9625.3401       147.99105       28.325331       1
       9637.8549       170.40825       34.829664       1
       9650.3697       135.55856       27.957455       1
       9662.8844       169.73173       34.570865       1
       9675.3992       152.69824       30.124807       1
       9687.9140       171.02757       34.424550       1
       9700.4287       179.95866       30.062388       1
       9712.9435       190.59210       34.195273       1
       9725.4583       201.24573       27.751149       1
       9737.9730       139.50424       33.357330       1
       9750.4878       160.84229       27.178954       1
       9763.0026       155.43644       33.265282       1
       9775.5173       149.90192       26.666786       1
       9788.0321       144.52953       32.655544       1
       9800.5469       155.88733       28.637781       1
       9813.0616       143.16905       32.595237       1
       9825.5764       156.63243       28.672084       1
       9838.0912       173.82787       33.128289       1
       9850.6060       138.58975       26.281364       1
       9863.1207       177.57743       32.690409       1
       9875.6355       130.56492       25.970044       1
       9888.1503       157.15061       32.235066       1
       9900.6650       126.32000       25.932264       1
       9913.1798       162.39725       32.228060       1
       9925.6946       154.57230       25.990320       1
       9938.2093       147.41890       31.873405       1
       9950.7241       166.94641       25.990393       1
       9963.2389       170.77439       31.884401       1
       9975.7536       162.36062       25.684491       1
       9988.2684       161.58689       31.341451       1
       10000.783       142.25284       25.108368       1
       10013.298       158.06794       30.781191       1
       10025.813       115.25884       26.576960       1
       10038.327       159.72977       34.820643       1
       10050.842       142.11853       26.326239       1
       10063.357       159.31788       30.088074       1
       10075.872       136.20642       24.459591       1
       10088.387       160.98429       30.355821       1
       10100.901       112.50232       24.347976       1
       10113.416       133.92525       30.014180       1
       10125.931       147.56344       24.476214       1
       10138.446       138.74360       29.959200       1
       10150.960       152.64858       24.351035       1
       10163.475       149.08400       29.754790       1
       10175.990       126.51898       23.912958       1
       10188.505       172.57584       29.825210       1
       10201.019       164.38631       23.761982       1
       10213.534       171.61246       29.696039       1
       10226.049       164.28123       25.673740       1
       10238.564       189.19536       29.558738       1
       10251.079       146.82384       23.201137       1
       10263.593       161.19371       29.036856       1
       10276.108       129.23733       22.940568       1
       10288.623       139.90815       28.570431       1
       10301.138       138.95267       22.814724       1
       10313.652       152.60639       28.387861       1
       10326.167       141.18485       24.449310       1
       10338.682       155.00435       28.112976       1
       10351.197       154.36819       22.442835       1
       10363.711       167.07013       28.060207       1
       10376.226       154.05767       22.434848       1
       10388.741       185.66939       28.333166       1
       10401.256       175.61097       22.588328       1
       10413.771       198.44051       28.311741       1
       10426.285       185.21896       22.626093       1
       10438.800       211.70272       28.292388       1
       10451.315       194.05596       22.601411       1
       10463.830       141.68623       27.971538       1
       10476.344       148.72188       22.210566       1
       10488.859       146.61188       27.865702       1
       10501.374       133.31604       22.001195       1
       10513.889       149.39271       36.753649       1
       10526.403       135.28464       22.056222       1
       10538.918       136.36332       27.507967       1
       10551.433       151.72413       22.176534       1
       10563.948       125.88320       27.428344       1
       10576.463       148.14489       22.187714       1
       10588.977       166.12413       27.669243       1
       10601.492       160.95310       22.073239       1
       10614.007       160.07350       27.405434       1
       10626.522       145.73668       21.971612       1
       10639.036       172.60057       27.485923       1
       10651.551       158.69161       21.889022       1
       10664.066       168.91474       27.180198       1
       10676.581       150.84408       21.637733       1
       10689.095       167.56018       26.877772       1
       10701.610       175.62101       21.613940       1
       10714.125       191.98955       26.955046       1
       10726.640       236.15722       21.935879       1
       10739.155       323.05822       28.918556       1
       10751.669       256.65743       21.967999       1
       10764.184       217.16749       27.076509       1
       10776.699       181.85843       21.495246       1
       10789.214       171.56492       26.648274       1
       10801.728       150.58315       21.252738       1
       10814.243       161.37258       27.635574       1
       10826.758       158.32162       21.278318       1
       10839.273       157.24174       26.395167       1
       10851.787       164.36545       21.249079       1
       10864.302       121.18258       25.955251       1
       10876.817       119.89668       20.766041       1
       10889.332       135.61013       25.901752       1
       10901.847       142.24129       20.749815       1
       10914.361       124.94174       25.702509       1
       10926.876       119.80002       20.588282       1
       10939.391       114.84653       25.543821       1
       10951.906       120.59700       20.487596       1
       10964.420       114.04301       25.468772       1
       10976.935       118.39627       20.429630       1
       10989.450       119.44794       25.330757       1
       11001.965       120.71419       20.520217       1
       11014.479       144.15688       25.707886       1
       11026.994       87.809903       20.260379       1
       11039.509       114.98008       25.487371       1
       11052.024       100.34064       20.497682       1
       11064.539       110.90513       25.314803       1
       11077.053       135.77691       20.733057       1
       11089.568       127.41103       25.443328       1
       11102.083       126.42345       20.649303       1
       11114.598       124.08655       25.674085       1
       11127.112       118.41689       20.494739       1
       11139.627       116.20211       25.306359       1
       11152.142       123.00365       20.628601       1
       11164.657       137.12440       25.570733       1
       11177.171       113.67381       20.552604       1
       11189.686       117.70284       25.408874       1
       11202.201       123.01189       20.659838       0
       11214.716       122.70454       25.305789       0
       11227.230       111.41334       20.548779       0
       11239.745       131.73210       25.498529       0
       11252.260       118.43195       20.567741       0
       11264.775       131.63437       25.446843       0
       11277.290       106.15458       20.427377       0
       11289.804       117.83708       25.223951       0
       11302.319       119.33454       20.737917       0
       11314.834       92.655424       25.090903       0
       11327.349       128.50124       20.558164       0
       11339.863       126.92916       25.384243       0
       11352.378       106.25633       20.472162       0
       11364.893       101.84174       25.244152       0
       11377.408       119.83884       20.871773       0
       11389.922       109.89785       26.169862       0
       11402.437       96.332350       21.845057       0
       11414.952       66.161194       27.977210       0
       11427.467       93.370844       24.382724       0
       11439.982       109.38560       32.596164       0
       11452.496       90.818109       28.694839       0
       11465.011       73.946267       39.100753       0
       11477.526       87.595223       36.037227       0
       11490.041       127.92952       50.689858       0
       11502.555       97.364440       46.523976       0
       11515.070       126.85987       64.999142       0
       11527.585       74.882805       63.520942       0
       11540.100       148.82412       81.523898       0
       11552.614       39.850259       72.660421       0
       11565.129       119.55704       99.446550       0
       11577.644       13.759574       89.471903       0
       11590.159       69.136528       125.46205       0
       11602.674       107.29279       118.20835       0
       11615.188       106.24105       173.13037       0
       11627.703       206.31273       171.07805       0
       11640.218      -35.691693       258.32417       0
       11652.733      -170.68439       258.63807       0
       11665.247      -56.841619       395.84070       0
       11677.762      -151.53694       425.85189       0
       11690.277      -3.5020508       593.89485       0
       11702.792      -125.40473       581.19859       0
       11715.306       495.46082       869.54514       0
       11727.821       130.40295       891.76729       0
       11740.336       1229.8653       1437.7326       0
       11752.851       597.31258       1512.6859       0
       11765.366      -593.29085       2403.9250       0
       11777.880      -1823.5382       2566.0459       0
       11790.395      -2050.5254       4566.8618       0
       11802.910      -1368.5073       3757.2036       0
       11815.425       4856.8257       5572.8851       0
       11827.939       4099.0687       3987.9311       0
       11840.454       742.70894       4746.7211       0
       11852.969      -1868.0348       3728.6777       0
       11865.484       1562.6242       4632.2385       0
       11877.998      -2253.7284       3920.9691       0
       11890.513      -74.217365       5315.9405       0
       11903.028       2865.6229       4924.7590       0
       11915.543       1551.2559       7180.4449       0
       11928.058       86.033622       6888.6860       0
       11940.572      -6406.5954       10078.257       0
       11953.087      -1628.9794       9301.0222       0
       11965.602       2796.8187       13278.737       0
       11978.117       3606.8939       12141.993       0
       11990.631      -27548.099       17629.889       0
       12003.146      -13060.406       17576.739       0
       12015.661      -21358.382       26587.718       0
