#WAVELENGTH FLUX ERROR MASK
       10228.032       1111.9256       2542.4596       0
       10250.906       1816.1679       2127.8163       0
       10273.781       788.40828       1827.0438       0
       10296.656       944.95545       1579.4419       0
       10319.531       1691.9905       1406.8793       0
       10342.406       332.06507       1252.8570       0
       10365.280       446.47791       1143.7584       0
       10388.155       781.23045       1047.5687       0
       10411.030       385.10105       951.63829       0
       10433.905       363.02481       849.34398       0
       10456.780       569.45536       742.16577       0
       10479.654       278.95308       626.15311       0
       10502.529       445.21221   1.2916900e+08       0
       10525.404       241.61699       428.59663       0
       10548.279       118.62991       388.11584       0
       10571.154       332.46166       337.84366       0
       10594.028       138.07595       300.51566       0
       10616.903       248.98914       270.05716       0
       10639.778       246.95685       245.51958       0
       10662.653       262.57883       53068254.       0
       10685.528       204.74461       191.65013       0
       10708.402       132.94954       164.20794       0
       10731.277       145.82843       130.14000       0
       10754.152       152.64448       114.98613       0
       10777.027       90.040703       95.487118       0
       10799.902       110.85418       81.524645       0
       10822.776       104.57443       70.467480       0
       10845.651       95.209080       62.044184       0
       10868.526       65.301153       54.964729       0
       10891.401       67.034621       47.924203       0
       10914.276       65.340301       46.778583       0
       10937.151       86.896488       43.538604       0
       10960.025       73.425556       40.981152       0
       10982.900       48.068337       38.358659       0
       11005.775       49.710949       35.601709       1
       11028.650       63.690699       33.043529       1
       11051.525       57.876106       31.313088       1
       11074.399       65.519451       29.556017       1
       11097.274       54.844958       28.134639       1
       11120.149       57.326159       26.797999       1
       11143.024       46.029932       26.025942       1
       11165.899       54.932479       25.424905       1
       11188.773       68.922261       25.317721       1
       11211.648       46.069291       24.497286       1
       11234.523       60.719189       24.573754       1
       11257.398       57.079136       24.090703       1
       11280.273       53.171928       23.954928       1
       11303.147       60.710006       23.571792       1
       11326.022       54.947434       23.410943       1
       11348.897       50.403480       23.176040       1
       11371.772       49.052201       22.843630       1
       11394.647       52.704845       22.758435       1
       11417.521       46.705728       22.657739       1
       11440.396       53.611137       22.367395       1
       11463.271       46.375185       22.962797       1
       11486.146       48.909436       22.015096       1
       11509.021       59.292816       22.340073       1
       11531.895       62.425933       21.826289       1
       11554.770       54.176394       22.212339       1
       11577.645       64.120432       22.086063       1
       11600.520       45.537529       21.787104       1
       11623.395       54.350745       21.441761       1
       11646.269       59.924139       21.584824       1
       11669.144       59.066465       22.390389       1
       11692.019       47.209417       20.983838       1
       11714.894       58.315602       20.745966       1
       11737.769       63.349517       20.486423       1
       11760.644       61.227812       20.150943       1
       11783.518       64.762446       20.093693       1
       11806.393       55.280315       19.770158       1
       11829.268       53.859917       19.578945       1
       11852.143       66.657557       19.504679       1
       11875.018       52.437680       19.405203       1
       11897.892       54.753745       19.196641       1
       11920.767       59.627144       19.206017       1
       11943.642       54.644021       18.744691       1
       11966.517       61.330377       18.931402       1
       11989.392       50.837878       18.465722       1
       12012.266       54.573500       18.672644       1
       12035.141       64.335380       18.476902       1
       12058.016       48.240387       18.320372       1
       12080.891       59.492310       18.122413       1
       12103.766       45.279762       18.037426       1
       12126.640       69.945098       18.122536       1
       12149.515       56.138768       18.000098       1
       12172.390       60.303261       17.853645       1
       12195.265       51.035318       16.570699       1
       12218.140       46.614921       17.446265       1
       12241.014       57.516800       17.450172       1
       12263.889       61.379680       17.317558       1
       12286.764       48.393572       17.262877       1
       12309.639       54.977652       17.139389       1
       12332.514       51.867720       17.186898       1
       12355.388       50.969666       16.880654       1
       12378.263       52.725713       16.978196       1
       12401.138       54.313758       16.349849       1
       12424.013       52.042951       16.595058       1
       12446.888       60.011083       16.351272       1
       12469.762       51.409375       16.486505       1
       12492.637       51.759314       16.201755       1
       12515.512       61.592845       16.462127       1
       12538.387       53.428062       16.044275       1
       12561.262       50.369246       16.198161       1
       12584.136       53.050617       15.931629       1
       12607.011       52.200370       16.163196       1
       12629.886       63.023528       15.953425       1
       12652.761       50.319991       16.080653       1
       12675.636       53.135987       15.759638       1
       12698.511       48.055529       15.807303       1
       12721.385       52.546155       15.615795       1
       12744.260       56.022316       15.796816       1
       12767.135       52.384567       15.380162       1
       12790.010       56.728630       15.972086       1
       12812.885       50.252754       15.160518       1
       12835.759       49.901130       15.390082       1
       12858.634       54.572738       14.963477       1
       12881.509       48.902990       15.266569       1
       12904.384       53.839042       15.036600       1
       12927.259       53.722055       15.189794       1
       12950.133       43.562535       14.810809       1
       12973.008       49.481089       14.935969       1
       12995.883       53.055861       14.691270       1
       13018.758       53.559190       14.797829       1
       13041.633       44.195266       14.526446       1
       13064.507       48.254810       14.572964       1
       13087.382       54.446431       14.398236       1
       13110.257       46.027601       14.550224       1
       13133.132       51.996071       14.234998       1
       13156.007       46.369215       14.363015       1
       13178.881       49.846094       14.084205       1
       13201.756       41.122819       13.304171       1
       13224.631       47.447472       13.815777       1
       13247.506       44.301709       14.010588       1
       13270.381       37.974598       13.636658       1
       13293.255       40.653526       13.018761       1
       13316.130       45.929489       13.612879       1
       13339.005       41.193587       13.809235       1
       13361.880       30.498990       12.911584       1
       13384.755       55.081994       13.922322       1
       13407.629       45.860092       13.514966       1
       13430.504       50.613383       13.756894       1
       13453.379       51.877312       13.452678       1
       13476.254       55.099491       13.655239       1
       13499.129       45.608815       13.253792       1
       13522.004       44.589885       12.698463       1
       13544.878       44.794903       13.214120       1
       13567.753       50.417725       13.453985       1
       13590.628       50.604214       13.244001       1
       13613.503       50.911544       13.450416       1
       13636.378       42.091966       13.112796       1
       13659.252       46.926045       13.410380       1
       13682.127       31.602080       12.459022       1
       13705.002       40.834931       13.329318       1
       13727.877       45.205499       13.149434       1
       13750.752       41.882318       13.367386       1
       13773.626       46.377268       13.189177       1
       13796.501       47.290523       13.419692       1
       13819.376       50.413534       13.230307       1
       13842.251       48.121327       3173620.4       1
       13865.126       55.044105       13.260214       1
       13888.000       73.496427       13.611801       1
       13910.875       69.598275       13.309330       1
       13933.750       71.721418       13.524961       1
       13956.625       71.880923       13.285243       1
       13979.500       68.709700       13.725617       1
       14002.374       71.492875       4407723.8       1
       14025.249       67.680278       13.460760       1
       14048.124       69.852387       13.079129       1
       14070.999       73.740520       13.308246       1
       14093.874       76.393698       12.985622       1
       14116.748       81.134282       13.216553       1
       14139.623       99.849138       13.144781       1
       14162.498       100.14747       13.393619       1
       14185.373       86.680125       12.940978       1
       14208.248       78.546742       13.099337       1
       14231.122       61.486081       12.712013       1
       14253.997       67.618377       12.908225       1
       14276.872       64.184474       12.613207       1
       14299.747       64.747854       12.758833       1
       14322.622       58.992703       12.474440       1
       14345.497       69.734862       12.717041       1
       14368.371       60.549887       12.362531       1
       14391.246       46.782295       11.747555       1
       14414.121       53.295211       12.317918       1
       14436.996       52.859757       12.508384       1
       14459.871       59.322797       12.364585       1
       14482.745       58.103303       12.537000       1
       14505.620       49.498163       12.251167       1
       14528.495       53.189723       12.459962       1
       14551.370       51.840616       12.624505       1
       14574.245       47.389146       12.406958       1
       14597.119       41.948697       12.202437       1
       14619.994       41.110636       12.350661       1
       14642.869       38.346663       11.376154       1
       14665.744       43.257012       12.394025       1
       14688.619       46.470949       12.247778       1
       14711.493       44.966972       12.416413       1
       14734.368       40.180099       12.161814       1
       14757.243       39.443279       12.351834       1
       14780.118       38.339654       12.302372       1
       14802.993       44.051903       12.411953       1
       14825.867       39.748345       12.175915       1
       14848.742       42.364546       12.412414       1
       14871.617       41.824754       12.127857       1
       14894.492       40.203976       12.283110       1
       14917.367       44.775772       12.040572       1
       14940.241       42.786569       12.188742       1
       14963.116       41.901492       11.202715       1
       14985.991       42.491693       12.078122       1
       15008.866       43.888566       11.915923       1
       15031.741       44.519188       12.095840       1
       15054.615       37.921282       11.824102       1
       15077.490       43.046304       12.086642       1
       15100.365       43.000774       11.972082       1
       15123.240       42.614711       12.071790       1
       15146.115       39.444093       11.800313       1
       15168.989       41.449296       12.369653       1
       15191.864       40.822794       11.994697       1
       15214.739       39.677937       12.638266       1
       15237.614       40.702944       12.372904       1
       15260.489       41.262840       12.040141       1
       15283.364       35.820722       12.630196       1
       15306.238       40.094873       12.051237       1
       15329.113       41.995782       11.961408       1
       15351.988       35.927283       11.957665       1
       15374.863       48.324910       12.012292       1
       15397.738       37.680234       11.323042       1
       15420.612       40.521545       12.002028       1
       15443.487       35.880137       11.986942       1
       15466.362       38.778085       12.001173       1
       15489.237       43.636341       12.105907       1
       15512.112       37.502205       11.965068       1
       15534.986       45.052320       12.159759       1
       15557.861       39.496543       12.020463       1
       15580.736       36.496551       12.271843       1
       15603.611       37.246340       11.967833       1
       15626.486       39.594514       12.077937       1
       15649.360       39.189555       11.992965       1
       15672.235       38.859986       12.038985       1
       15695.110       40.010895       11.964343       1
       15717.985       35.564776       11.927537       1
       15740.860       42.152220       11.892080       1
       15763.734       31.346167       11.882791       1
       15786.609       43.658690       11.842542       1
       15809.484       39.305492       11.873840       1
       15832.359       35.911331       11.770385       1
       15855.234       38.503867       11.843935       1
       15878.108       41.775586       11.813831       1
       15900.983       33.475433       11.824221       1
       15923.858       44.475587       11.890802       1
       15946.733       39.364966       11.880793       1
       15969.608       34.163579       11.055667       1
       15992.482       29.502381       11.831187       1
       16015.357       40.251283       11.850237       1
       16038.232       42.969665       11.961572       1
       16061.107       42.698505       11.903123       1
       16083.982       41.213477       11.918736       1
       16106.857       39.214968       11.810360       1
       16129.731       41.594099       11.979153       1
       16152.606       31.872646       11.804213       1
       16175.481       37.267907       11.981589       1
       16198.356       38.494822       11.925407       1
       16221.231       38.517825       12.059564       1
       16244.105       39.402081       12.007859       1
       16266.980       36.354287       12.059416       1
       16289.855       33.735534       12.174158       1
       16312.730       38.611506       12.168704       1
       16335.605       27.589211       12.060156       1
       16358.479       28.166509       12.089883       1
       16381.354       32.285807       12.146850       1
       16404.229       34.494305       12.206272       1
       16427.104       34.068162       12.172372       1
       16449.979       34.612201       12.258111       1
       16472.853       43.942906       12.308435       1
       16495.728       38.272378       12.326312       1
       16518.603       27.404712       11.555779       1
       16541.478       33.824812       12.624391       1
       16564.353       32.044492       12.825655       1
       16587.227       29.520771       13.356289       1
       16610.102       36.847561       13.785032       1
       16632.977       43.981316       14.689634       1
       16655.852       40.116245       15.526783       1
       16678.727       40.819526       16.780435       1
       16701.601       40.536022       18.091537       1
       16724.476       28.521642       19.858575       1
       16747.351       45.317791       22.168706       1
       16770.226       47.975589       24.901352       0
       16793.101       40.372725       27.942161       0
       16815.975       54.534149       31.881424       0
       16838.850       48.441060       33.790216       0
       16861.725       52.189179       41.298210       0
       16884.600       29.318109       43.193887       0
       16907.475       53.518876       51.990198       0
       16930.350       47.829992       57.753573       0
       16953.224       76.742087       64.653617       0
       16976.099       47.438302       71.250289       0
       16998.974       108.36349       80.714852       0
       17021.849       97.125142       89.451628       0
       17044.724       63.607961       99.545368       0
       17067.598       139.92080       110.85536       0
       17090.473       80.356794       122.52214       0
       17113.348       89.313775       134.26407       0
       17136.223       147.18049       150.50930       0
       17159.098       126.06714       169.55601       0
       17181.972       173.80012       193.46649       0
       17204.847       115.60064       221.74678       0
       17227.722      -86.682460       197.80825       0
       17250.597       192.62593       291.36611       0
       17273.472      -274.01716       252.97162       0
       17296.346       223.93093       91708241.       0
       17319.221      -45.544645       321.63949       0
       17342.096       300.45581       449.74786       0
