#WAVELENGTH FLUX ERROR MASK
       7522.8590       8262.3109       13433.371       0
       7535.3738       14234.344       14064.437       0
       7547.8885       4465.9775       9222.6087       0
       7560.4033       5200.7505       8887.3213       0
       7572.9181       5500.5317       5747.3365       0
       7585.4328       4432.5642       5593.7337       0
       7597.9476       1578.2894       3680.6411       0
       7610.4624       1294.1210       3816.5749       0
       7622.9772       1691.2521       2621.5344       0
       7635.4919       2346.4550       2801.3371       0
       7648.0067       1583.8071       1935.4901       0
       7660.5215       1427.0223       2048.1701       0
       7673.0362       490.95146       1372.6123       0
       7685.5510       1203.3831       1414.2587       0
       7698.0658       684.90660       949.26319       0
       7710.5805       305.66232       995.74418       0
       7723.0953       418.55064       699.61840       0
       7735.6101       160.30854       767.95897       0
       7748.1248       577.90677       565.92367       0
       7760.6396       329.27279       640.63171       0
       7773.1544       467.51384       492.75821       0
       7785.6691       480.63321       571.11849       0
       7798.1839       92.337385       419.33371       0
       7810.6987       542.44588       490.25345       0
       7823.2135       397.71841       322.08120       0
       7835.7282       452.98759       380.65344       0
       7848.2430       199.43704       258.35633       0
       7860.7578       127.61466       306.40378       0
       7873.2725       284.36733       218.91969       0
       7885.7873       350.49526       258.08529       0
       7898.3021       232.85549       193.68308       0
       7910.8168      -3.6449423       210.57157       0
       7923.3316       272.25543       163.21328       0
       7935.8464       102.49507       190.53749       0
       7948.3611       207.16612       147.61608       0
       7960.8759       94.996791       173.00491       0
       7973.3907       117.85900       133.91231       0
       7985.9054       90.598854       159.37771       0
       7998.4202       76.079484       130.92569       0
       8010.9350       62.640083       148.36585       0
       8023.4497       198.67212       120.64062       0
       8035.9645       179.53571       142.20260       0
       8048.4793       197.43719       115.15267       0
       8060.9941       145.88443       135.33593       0
       8073.5088       136.02138       110.24069       0
       8086.0236       137.93205       137.78993       0
       8098.5384       119.45568       101.03948       0
       8111.0531       122.33418       125.80737       0
       8123.5679       134.45761       105.12265       0
       8136.0827       184.46225       122.42086       0
       8148.5974       170.20755       99.403775       0
       8161.1122       176.48787       122.50650       1
       8173.6270       82.738730       92.475924       1
       8186.1417       115.97479       112.44340       1
       8198.6565       134.81525       89.537595       1
       8211.1713       102.57280       107.98811       1
       8223.6860       111.67598       85.402782       1
       8236.2008       131.58099       108.72081       1
       8248.7156       114.75760       83.823757       1
       8261.2303       93.518888       97.214239       1
       8273.7451       100.40421       76.943732       1
       8286.2599       119.87708       92.833117       1
       8298.7747       102.26165       73.446986       1
       8311.2894       65.206193       88.506065       1
       8323.8042       121.13793       72.420391       1
       8336.3190       114.72391       85.353571       1
       8348.8337       84.283594       73.344084       1
       8361.3485       120.66297       83.146678       1
       8373.8633       107.25786       67.937844       1
       8386.3780       60.032954       80.809785       1
       8398.8928       51.832815       67.699906       1
       8411.4076       145.69579       83.333355       1
       8423.9223       76.443960       64.109961       1
       8436.4371       81.083742       76.144561       1
       8448.9519       88.021708       60.506157       1
       8461.4666       109.19928       73.920125       1
       8473.9814       32.938458       58.408641       1
       8486.4962       107.17404       71.707340       1
       8499.0110       83.711865       57.166226       1
       8511.5257       94.106546       70.026278       1
       8524.0405       68.914959       55.678011       1
       8536.5553       97.579420       68.860934       1
       8549.0700       100.14960       55.424563       1
       8561.5848       52.039962       67.383853       1
       8574.0996       59.400176       53.903341       1
       8586.6143       91.278422       66.985978       1
       8599.1291       104.18233       56.992436       1
       8611.6439       61.267163       70.008806       1
       8624.1586       92.973588       53.680572       1
       8636.6734       95.054667       66.400756       1
       8649.1882       81.173887       52.935485       1
       8661.7029       63.804870       65.031184       1
       8674.2177       88.921857       51.953885       1
       8686.7325       77.839188       70.710135       1
       8699.2472       62.942695       56.369783       1
       8711.7620       91.451289       61.185728       1
       8724.2768       97.754913       48.521977       1
       8736.7916       46.537365       58.727052       1
       8749.3063       90.501259       46.850235       1
       8761.8211       57.918829       57.098498       1
       8774.3359       93.987184       45.755481       1
       8786.8506       101.13208       56.404240       1
       8799.3654       72.374132       44.749628       1
       8811.8802       102.18181       55.394165       1
       8824.3949       92.235906       45.433255       1
       8836.9097       69.264907       56.879100       1
       8849.4245       95.753339       43.128715       1
       8861.9392       72.685305       52.699302       1
       8874.4540       80.028145       42.628827       1
       8886.9688       60.787435       51.434946       1
       8899.4835       88.254555       41.328306       1
       8911.9983       64.684734       50.797331       1
       8924.5131       87.255100       40.754607       1
       8937.0279       26.742686       49.498029       1
       8949.5426       76.192069       39.969323       1
       8962.0574       79.677377       49.061641       1
       8974.5722       99.315324       40.397763       1
       8987.0869       42.539827       50.312111       1
       8999.6017       58.923329       38.610030       1
       9012.1165       76.570302       47.287695       1
       9024.6312       95.310095       38.082882       1
       9037.1460       59.907829       46.693094       1
       9049.6608       75.113326       38.056130       1
       9062.1755       81.503386       46.698106       1
       9074.6903       89.619699       37.472807       1
       9087.2051       101.50272       46.244782       1
       9099.7198       66.724584       36.703246       1
       9112.2346       76.664776       45.146506       1
       9124.7494       53.257305       35.867005       1
       9137.2641       42.766357       43.928451       1
       9149.7789       64.429823       35.140033       1
       9162.2937       54.266726       43.118365       1
       9174.8085       64.855547       34.492081       1
       9187.3232       76.024871       42.486903       1
       9199.8380       96.228117       34.028683       1
       9212.3528       59.396742       41.475825       1
       9224.8675       67.757812       34.066803       1
       9237.3823       60.708797       43.006515       1
       9249.8971       50.402201       32.680952       1
       9262.4118       72.072121       40.487414       1
       9274.9266       57.639418       33.189212       1
       9287.4414       57.766205       42.101239       1
       9299.9561       64.334399       32.009082       1
       9312.4709       67.595492       42.019698       1
       9324.9857       84.183737       32.483865       1
       9337.5004       54.036712       38.981867       1
       9350.0152       62.770214       31.486669       1
       9362.5300       64.091566       41.285090       1
       9375.0448       62.259493       32.062450       1
       9387.5595       59.372711       38.491513       1
       9400.0743       84.886921       31.078507       1
       9412.5891       51.923873       37.791874       1
       9425.1038       76.779437       31.314484       1
       9437.6186       54.350170       38.994803       1
       9450.1334       59.819356       29.984989       1
       9462.6481       92.540901       37.141546       1
       9475.1629       63.170640       29.589265       1
       9487.6777       62.271609       36.378683       1
       9500.1924       71.294188       30.096513       1
       9512.7072       54.013836       37.892604       1
       9525.2220       71.619813       29.835668       1
       9537.7367       58.411131       37.808095       1
       9550.2515       64.656018       28.565903       1
       9562.7663       62.386898       35.001452       1
       9575.2810       66.318599       29.861487       1
       9587.7958       51.836086       34.664779       1
       9600.3106       74.992840       28.910349       1
       9612.8254       64.509056       36.647577       1
       9625.3401       84.302953       29.370325       1
       9637.8549       70.813395       35.900737       1
       9650.3697       77.019945       28.287345       1
       9662.8844       75.238531       35.639702       1
       9675.3992       71.681408       27.265588       1
       9687.9140       76.275846       33.680631       1
       9700.4287       73.816305       27.067971       1
       9712.9435       75.005568       35.396308       1
       9725.4583       55.708555       27.357456       1
       9737.9730       60.573197       37.684210       1
       9750.4878       64.753126       27.049066       1
       9763.0026       84.185489       34.259003       1
       9775.5173       65.068741       26.866940       1
       9788.0321       54.998795       33.815425       1
       9800.5469       68.651395       25.927491       1
       9813.0616       69.148855       31.998815       1
       9825.5764       61.075544       25.666406       1
       9838.0912       73.300735       31.728452       1
       9850.6060       63.347677       26.381337       1
       9863.1207       51.059674       35.070818       1
       9875.6355       79.089079       26.245275       1
       9888.1503       90.652359       31.689978       1
       9900.6650       72.850034       25.378374       1
       9913.1798       57.014532       31.123895       1
       9925.6946       64.136713       25.216395       1
       9938.2093       65.459270       31.188632       1
       9950.7241       69.144316       25.152040       1
       9963.2389       82.469650       31.095693       1
       9975.7536       63.843867       24.858965       1
       9988.2684       59.545303       30.376121       1
       10000.783       56.213416       24.411101       1
       10013.298       45.225161       29.914579       1
       10025.813       53.326117       24.122329       1
       10038.327       50.803132       29.539295       1
       10050.842       62.820857       23.951472       1
       10063.357       57.928471       29.516920       1
       10075.872       64.451859       23.880262       1
       10088.387       57.391921       29.570410       1
       10100.901       69.385335       23.917900       1
       10113.416       62.905170       29.513223       1
       10125.931       54.069315       23.732545       1
       10138.446       62.582411       29.378838       1
       10150.960       63.522173       23.685638       1
       10163.475       53.922653       29.110390       1
       10175.990       60.852204       23.453414       1
       10188.505       54.966794       28.806598       1
       10201.019       63.871421       23.872285       1
       10213.534       60.981230       28.727325       1
       10226.049       46.069599       22.979395       1
       10238.564       55.905057       28.484729       1
       10251.079       68.281600       22.866309       1
       10263.593       58.846782       28.098853       1
       10276.108       52.420825       23.786599       1
       10288.623       57.872712       30.820386       1
       10301.138       51.959380       22.209958       1
       10313.652       71.732252       27.509257       1
       10326.167       69.770008       22.159440       1
       10338.682       52.769455       27.220153       1
       10351.197       60.865423       21.980464       1
       10363.711       53.879330       30.415262       1
       10376.226       65.488351       23.098148       1
       10388.741       67.651127       27.088637       1
       10401.256       50.427546       21.689174       1
       10413.771       53.531691       26.957573       1
       10426.285       58.017192       21.781909       1
       10438.800       68.391222       27.095272       1
       10451.315       66.703299       21.740240       1
       10463.830       66.177725       27.068205       1
       10476.344       83.228985       21.802148       1
       10488.859       68.813847       26.847161       1
       10501.374       68.610130       21.617047       1
       10513.889       79.098012       26.893932       1
       10526.403       86.135030       21.744819       1
       10538.918       64.101967       26.745131       1
       10551.433       64.114139       21.581870       1
       10563.948       68.567877       26.886440       1
       10576.463       68.474742       21.653269       1
       10588.977       66.475671       26.773232       1
       10601.492       63.094238       21.546575       1
       10614.007       67.088705       26.661451       1
       10626.522       67.389097       21.445175       1
       10639.036       49.584883       26.380755       1
       10651.551       72.819973       21.304558       1
       10664.066       63.168540       26.146962       1
       10676.581       80.252786       21.131447       1
       10689.095       65.238251       25.964284       1
       10701.610       93.440213       21.624719       1
       10714.125       68.992346       27.123507       1
       10726.640       76.571661       20.888338       1
       10739.155       84.810862       27.536768       1
       10751.669       68.046642       21.268493       1
       10764.184       82.096995       25.847297       1
       10776.699       71.599414       20.755995       1
       10789.214       85.478502       25.912365       1
       10801.728       103.08312       21.581853       1
       10814.243       66.244071       26.831482       1
       10826.758       87.468535       20.774856       1
       10839.273       72.294427       25.596768       1
       10851.787       60.764865       20.481955       1
       10864.302       69.346708       25.475641       1
       10876.817       58.403332       20.405598       1
       10889.332       61.577349       26.660622       1
       10901.847       66.376118       21.470840       1
       10914.361       50.442428       25.048567       1
       10926.876       65.519457       20.256304       1
       10939.391       62.175334       26.601930       1
       10951.906       54.629363       20.597436       1
       10964.420       46.034961       24.848473       1
       10976.935       50.455992       20.051409       1
       10989.450       49.343681       24.922686       1
       11001.965       43.835989       20.043478       1
       11014.479       56.488460       24.964812       1
       11026.994       50.133379       20.068408       1
       11039.509       48.427846       24.901395       1
       11052.024       48.636134       20.081360       1
       11064.539       51.811288       24.825967       1
       11077.053       46.599781       20.031301       1
       11089.568       57.771488       24.879156       1
       11102.083       54.068099       21.139531       1
       11114.598       52.522789       24.751495       1
       11127.112       45.582151       19.952743       1
       11139.627       50.152245       24.662995       1
       11152.142       43.972205       19.975278       1
       11164.657       44.975831       24.780488       1
       11177.171       55.640895       20.071785       1
       11189.686       51.864421       24.779214       1
       11202.201       59.378630       20.051609       0
       11214.716       48.954534       24.695911       0
       11227.230       43.838948       19.948710       0
       11239.745       42.408661       24.657079       0
       11252.260       51.539110       20.046224       0
       11264.775       52.089144       24.668370       0
       11277.290       41.587523       19.912432       0
       11289.804       52.245903       24.655511       0
       11302.319       46.868175       19.922246       0
       11314.834       50.781292       24.610209       0
       11327.349       48.345941       19.920140       0
       11339.863       59.342033       24.724851       0
       11352.378       37.151759       19.847713       0
       11364.893       49.832449       24.779222       0
       11377.408       42.847445       20.227674       0
       11389.922       41.144289       25.576850       0
       11402.437       43.766088       21.302377       0
       11414.952       46.119905       27.814708       0
       11427.467       45.163438       23.899242       0
       11439.982       39.514367       31.938391       0
       11452.496       56.170303       28.459154       0
       11465.011       48.316285       39.040626       0
       11477.526       61.924284       36.735025       0
       11490.041       20.306126       52.254178       0
       11502.555       83.692034       46.194654       0
       11515.070       47.473711       64.575931       0
       11527.585       27.489817       58.486570       0
       11540.100       72.818007       80.811506       0
       11552.614       90.925943       72.612950       0
       11565.129       68.223037       105.19766       0
       11577.644       54.218186       91.730732       0
       11590.159       82.369842       126.01054       0
       11602.674       43.666299       117.69323       0
       11615.188       92.651842       173.33276       0
       11627.703       82.472418       174.49691       0
       11640.218       124.03374       274.20790       0
       11652.733       25.137449       259.49753       0
       11665.247       109.14449       397.84659       0
       11677.762       119.44190       396.63129       0
       11690.277       2.0849069       592.45173       0
       11702.792       226.69486       583.18517       0
       11715.306       23.977819       920.61073       0
       11727.821      -81.169388       908.38297       0
       11740.336       159.86323       1425.9380       0
       11752.851       82.347305       1498.4724       0
       11765.366      -847.21177       2397.8426       0
       11777.880       970.53514       2573.6609       0
       11790.395      -1.6948752       4047.4786       0
       11802.910       744.59396       3756.9957       0
       11815.425       579.97332       4871.6796       0
       11827.939       1012.5040       3948.7161       0
       11840.454       381.71281       4734.2000       0
       11852.969       2110.1949       3736.5702       0
       11865.484      -1227.8608       4594.5877       0
       11877.998      -2515.7806       3900.8213       0
       11890.513       180.84569       5310.3657       0
       11903.028      -4423.3650       5027.2902       0
       11915.543       1145.8851       7194.4792       0
       11928.058      -5943.0144       6865.9321       0
       11940.572      -3612.6254       10081.855       0
       11953.087      -2435.8329       9312.9667       0
       11965.602       2743.9309       13263.987       0
       11978.117       3968.8092       12156.474       0
       11990.631      -6297.0285       17785.251       0
       12003.146      -1701.5293       17779.760       0
       12015.661      -5162.9740       26793.308       0
