#WAVELENGTH FLUX ERROR MASK
       7478.5597       33361.533       23507.409       0
       7490.4624       25405.890       26648.422       0
       7502.3651       20653.718       18575.911       0
       7514.2678       2173.5716       18858.196       0
       7526.1705       19982.884       13402.104       0
       7538.0732       17294.320       13761.608       0
       7549.9759       184.84222       8928.2463       0
       7561.8786       19047.479       8866.6337       0
       7573.7813       869.63888       6967.1143       0
       7585.6840       629.66793       7961.6626       0
       7597.5867       2356.3754       3801.5079       0
       7609.4894       3301.4948       3913.5722       0
       7621.3921      -1293.0286       2719.7470       0
       7633.2948      -458.67296       2879.4163       0
       7645.1975       115.48450       2057.4362       0
       7657.1003      -854.21947       2156.4232       0
       7669.0030       2303.8463       1584.3140       0
       7680.9057      -976.36962       1496.0963       0
       7692.8084       1295.2311       1049.9090       0
       7704.7111       1733.3516       1084.7719       0
       7716.6138       408.01841       764.92027       0
       7728.5165       1240.4899       833.62322       0
       7740.4192      -67.382631       607.17689       0
       7752.3219      -1469.3729       661.52869       0
       7764.2246      -396.64051       512.37189       0
       7776.1273      -422.91088       580.80496       0
       7788.0300      -109.27348       437.02219       0
       7799.9327       164.52609       486.20899       0
       7811.8354       454.11650       362.68291       0
       7823.7381      -187.51915       392.16811       0
       7835.6408       206.89597       292.75725       0
       7847.5435      -42.411109       320.03637       0
       7859.4462       38.968314       239.85844       0
       7871.3489       180.80792       268.10878       0
       7883.2516       234.08498       202.25139       0
       7895.1543       7.1070867       228.44094       0
       7907.0571       119.34060       173.83768       0
       7918.9598      -181.70927       201.87915       0
       7930.8625      -127.72368       155.06462       0
       7942.7652       109.88437       185.59186       0
       7954.6679       88.737110       143.28483       0
       7966.5706       214.33893       170.46909       0
       7978.4733       37.578884       130.83218       0
       7990.3760       15.041142       155.74380       0
       8002.2787       16.977477       137.09845       0
       8014.1814       80.157816       146.89176       0
       8026.0841      -19.367332       114.47144       0
       8037.9868      -42.200518       138.95129       0
       8049.8895       72.354141       110.55716       0
       8061.7922      -91.167181       132.29923       0
       8073.6949       30.776530       106.11179       0
       8085.5976       80.492362       129.54702       0
       8097.5003       65.421760       102.65453       0
       8109.4030       145.45817       126.37240       0
       8121.3057      -131.16720       97.608616       0
       8133.2084       45.745933       120.15053       0
       8145.1111      -19.111575       94.954482       0
       8157.0139      -9.5978663       115.93267       1
       8168.9166       88.788060       92.781283       1
       8180.8193      -13.103348       112.09420       1
       8192.7220       19.457046       89.137641       1
       8204.6247       146.73298       109.62111       1
       8216.5274       70.467107       85.751904       1
       8228.4301      -15.587210       102.65876       1
       8240.3328      -29.917338       80.893953       1
       8252.2355       18.201699       104.02846       1
       8264.1382       11.629947       77.230697       1
       8276.0409      -10.702537       93.224371       1
       8287.9436       22.677517       73.593619       1
       8299.8463       84.888810       90.009454       1
       8311.7490       43.735939       79.471859       1
       8323.6517       30.229905       105.93010       1
       8335.5544       79.365660       76.887785       1
       8347.4571       111.80038       103.72887       1
       8359.3598       15.744910       66.615157       1
       8371.2625       75.761085       82.031266       1
       8383.1652      -31.612651       64.472834       1
       8395.0679      -57.935697       78.415856       1
       8406.9707       13.522243       61.879041       1
       8418.8734       74.103688       77.121029       1
       8430.7761       30.030434       59.985432       1
       8442.6788       250.20730       76.607855       1
       8454.5815       36.024463       57.769454       1
       8466.4842       50.323862       72.378228       1
       8478.3869      -25.465377       56.117901       1
       8490.2896       28.922633       103.99138       1
       8502.1923      -5.7187609       66.312175       1
       8514.0950       152.40329       102.95796       1
       8525.9977       44.085447       65.897117       1
       8537.9004       44.440327       66.937763       1
       8549.8031       19.868025       53.094688       1
       8561.7058      -29.831038       66.368829       1
       8573.6085       12.054208       52.778511       1
       8585.5112       24.139667       66.697764       1
       8597.4139      -112.82587       51.559452       1
       8609.3166       169.42062       67.198479       1
       8621.2193       40.663807       52.219145       1
       8633.1220       132.83436       66.547711       1
       8645.0247      -25.937297       51.100729       1
       8656.9275       26.400616       64.314315       1
       8668.8302       18.110976       50.503450       1
       8680.7329      -89.827394       61.811591       1
       8692.6356      -9.6203423       48.920058       1
       8704.5383       100.08698       61.518508       1
       8716.4410      -18.632306       46.999726       1
       8728.3437       44.284349       58.802089       1
       8740.2464       4.9843235       45.607800       1
       8752.1491       22.870693       56.927057       1
       8764.0518       50.998400       44.896891       1
       8775.9545       73.185403       56.420879       1
       8787.8572       43.674582       43.998535       1
       8799.7599       31.431414       54.892523       1
       8811.6626       9.8479571       42.829241       1
       8823.5653       22.794663       53.480205       1
       8835.4680       92.670049       42.743972       1
       8847.3707       21.780236       52.503790       1
       8859.2734       50.231371       41.472770       1
       8871.1761       84.189373       52.187189       1
       8883.0788       8.6530654       41.113133       1
       8894.9816      -34.808925       49.980763       1
       8906.8843       16.556089       40.534129       1
       8918.7870      -13.431763       49.463812       1
       8930.6897      -2.1203239       39.711076       1
       8942.5924       19.472533       48.920613       1
       8954.4951      -7.6483868       38.959927       1
       8966.3978      -19.099668       47.781126       1
       8978.3005       23.725123       38.441035       1
       8990.2032       59.312679       47.316618       1
       9002.1059       5.2390831       37.444758       1
       9014.0086      -32.546001       45.955949       1
       9025.9113      -33.038392       36.920610       1
       9037.8140      -5.9312191       45.784433       1
       9049.7167       11.522797       37.357335       1
       9061.6194      -32.053016       45.621851       1
       9073.5221       19.999707       36.978853       1
       9085.4248       32.809429       45.242606       1
       9097.3275      -10.125452       35.826179       1
       9109.2302      -69.306939       43.176839       1
       9121.1329       7.1674726       35.200712       1
       9133.0356       2.5573398       43.245005       1
       9144.9384       15.588306       34.738537       1
       9156.8411       23.124358       42.524318       1
       9168.7438       6.3062773       34.024936       1
       9180.6465       46.903200       42.257310       1
       9192.5492       44.197148       33.553550       1
       9204.4519       59.331203       41.554440       1
       9216.3546       21.796895       32.907114       1
       9228.2573       24.148100       40.419766       1
       9240.1600       15.536129       32.312019       1
       9252.0627       4.1621208       39.621724       1
       9263.9654       15.957151       31.843224       1
       9275.8681       33.778306       39.463963       1
       9287.7708      -9.6631362       31.218550       1
       9299.6735       13.606502       38.911782       1
       9311.5762      -2.6459814       30.972953       1
       9323.4789       11.505777       38.404760       1
       9335.3816      -13.385053       30.764674       1
       9347.2843       37.636208       38.528649       1
       9359.1870      -16.455925       30.601225       1
       9371.0897       26.355924       38.124023       1
       9382.9924       1.5102406       31.032954       1
       9394.8952       41.037570       38.176172       1
       9406.7979       51.812439       31.273878       1
       9418.7006      -2.6363242       37.003366       1
       9430.6033       43.606054       30.564414       1
       9442.5060       25.549619       36.608092       1
       9454.4087      -6.2153922       29.819915       1
       9466.3114      -33.455694       36.006913       1
       9478.2141       17.085563       30.371271       1
       9490.1168       1.3255565       35.659326       1
       9502.0195      -13.993007       29.064053       1
       9513.9222       23.495097       35.517920       1
       9525.8249       12.848086       29.035022       1
       9537.7276      -16.600816       34.733134       1
       9549.6303       37.940397       28.823815       1
       9561.5330       32.489706       35.108757       1
       9573.4357      -1.8927486       28.393856       1
       9585.3384       16.316793       34.534117       1
       9597.2411       61.769937       28.337076       1
       9609.1438       62.802251       34.418499       1
       9621.0465       20.005702       27.906112       1
       9632.9492       7.3272655       33.824395       1
       9644.8520      -15.420955       27.384567       1
       9656.7547      -25.577076       33.161246       1
       9668.6574       1.4467577       27.481573       1
       9680.5601      -5.5420768       33.270828       1
       9692.4628      -1.5844476       27.108934       1
       9704.3655      -4.4928552       32.964711       1
       9716.2682       8.3480136       26.983751       1
       9728.1709      -39.491718       32.431127       1
       9740.0736       17.054226       26.790161       1
       9751.9763      -34.328527       31.982530       1
       9763.8790       12.852706       26.565392       1
       9775.7817     -0.22760288       32.216579       1
       9787.6844       1.2770869       26.369654       1
       9799.5871       7.1468789       32.123907       1
       9811.4898       36.458460       26.426989       1
       9823.3925      -1.7065045       31.768884       1
       9835.2952       34.622373       26.197737       1
       9847.1979       35.992741       31.991872       1
       9859.1006       44.073702       26.351545       1
       9871.0033       24.032573       31.818610       1
       9882.9060       4.6278188       25.443098       1
       9894.8088      -11.914335       31.156196       1
       9906.7115       6.5649046       25.315776       1
       9918.6142       17.869882       31.327751       1
       9930.5169       7.2500709       25.096483       1
       9942.4196      0.20552741       31.034279       1
       9954.3223       23.703608       25.080272       1
       9966.2250       37.808506       30.873093       1
       9978.1277       40.927581       24.828407       1
       9990.0304      -11.998596       30.092525       1
       10001.933       40.543175       24.537857       1
       10013.836       16.788914       30.033836       1
       10025.739       33.169589       24.127858       1
       10037.641       9.0967938       29.599024       1
       10049.544       14.967919       23.966890       1
       10061.447       17.161329       29.695441       1
       10073.349       20.939303       24.161233       1
       10085.252       32.032888       30.001063       1
       10097.155       23.682792       24.058720       1
       10109.057       12.147438       29.503693       1
       10120.960      0.54765277       23.761305       1
       10132.863       40.747157       29.749187       1
       10144.766       13.795130       23.654757       1
       10156.668      -11.577093       29.024458       1
       10168.571       22.345721       23.589667       1
       10180.474       25.206761       29.211815       1
       10192.376       26.150432       23.541071       1
       10204.279       19.137470       30.881328       1
       10216.182      -14.570746       22.900414       1
       10228.084       7.2391836       28.547518       1
       10239.987       11.485638       22.826484       1
       10251.890       23.930610       28.409723       1
       10263.793       16.369001       22.713534       1
       10275.695       3.9748529       27.921910       1
       10287.598       6.0193542       22.448920       1
       10299.501       19.156835       27.784438       1
       10311.403       33.814795       22.452224       1
       10323.306       9.2792004       27.626310       1
       10335.209       28.125573       22.321988       1
       10347.112      -19.229526       27.236090       1
       10359.014       8.1879827       21.574721       1
       10370.917       15.460770       27.291771       1
       10382.820      -4.1106566       21.492996       1
       10394.722       19.001604       27.104753       1
       10406.625      -2.4773106       21.518571       1
       10418.528       34.213134       27.543158       1
       10430.430       28.138692       21.736620       1
       10442.333       25.848649       27.240512       1
       10454.236      -3.4523242       21.424989       1
       10466.139       2.7018938       26.849515       1
       10478.041      -17.824142       21.199492       1
       10489.944       16.523533       27.223529       1
       10501.847     -0.69654597       21.457397       1
       10513.749       9.2421788       26.951844       1
       10525.652       31.587380       21.594883       1
       10537.555       24.121094       27.072308       1
       10549.458       3.1426542       21.390809       1
       10561.360       20.303258       27.175583       1
       10573.263     -0.21445944       21.308180       1
       10585.166       6.5186797       26.896681       1
       10597.068       6.6172608       21.340615       1
       10608.971       6.9523141       26.577654       1
       10620.874       12.444825       21.051261       1
       10632.776       23.230622       26.589220       1
       10644.679       36.772931       21.042336       1
       10656.582      -4.3813791       26.096224       1
       10668.485       33.074465       20.924660       1
       10680.387       30.649364       25.896109       1
       10692.290       9.5590824       20.477350       1
       10704.193       27.760176       25.907788       1
       10716.095       16.682579       20.555694       1
       10727.998       43.408621       26.344371       1
       10739.901       34.715985       20.798698       1
       10751.803      -1.3671061       25.727598       1
       10763.706       35.019109       20.745555       1
       10775.609       70.203865       26.201118       1
       10787.512       23.073562       20.471091       1
       10799.414       8.6048812       25.793577       1
       10811.317       38.444804       20.717820       1
       10823.220      -48.408557       25.099841       1
       10835.122       6.2679140       20.231817       1
       10847.025       18.365117       25.499716       1
       10858.928       32.204156       20.674129       1
       10870.831      -6.0240511       25.245009       1
       10882.733       3.0335703       20.452891       1
       10894.636       1.1621738       25.161989       1
       10906.539       32.246113       20.571036       1
       10918.441       20.921876       25.468041       1
       10930.344       39.790246       20.689029       1
       10942.247       6.7708148       25.268606       1
       10954.149       37.346757       20.628093       1
       10966.052       33.062993       25.474338       1
       10977.955       31.572440       20.583117       1
       10989.858       3.6256528       25.214880       1
       11001.760       21.546869       20.468565       1
       11013.663       11.615198       25.192556       1
       11025.566       33.614724       23.009799       1
       11037.468       28.273737       30.869906       1
       11049.371       19.693966       20.294206       1
       11061.274       14.198414       25.159616       1
       11073.177       17.346934       20.282660       1
       11085.079       19.049308       25.194652       1
       11096.982       12.163819       20.306822       1
       11108.885       26.467501       25.244616       1
       11120.787       11.139999       22.783595       1
       11132.690       13.151181       30.842810       1
       11144.593       20.385799       20.363123       1
       11156.495      0.57933909       25.162077       1
       11168.398       16.241030       20.393921       1
       11180.301      -16.075984       24.778002       1
       11192.204       30.880918       20.409717       1
       11204.106       34.586171       25.318411       0
       11216.009       8.7158049       22.434684       0
       11227.912       19.391598       25.429583       0
       11239.814      -3.0886626       20.116510       0
       11251.717    -0.051177874       24.985085       0
       11263.620       12.587530       20.238009       0
       11275.523       33.213030       25.279540       0
       11287.425       20.295404       20.311953       0
       11299.328      -1.1004347       24.965554       0
       11311.231       11.349244       20.430144       0
       11323.133       39.903965       25.930563       0
       11335.036       7.5577655       21.530431       0
       11346.939      -1.7063020       27.201556       0
       11358.841       39.369140       23.954809       0
       11370.744       8.3529007       31.053690       0
       11382.647       48.388657       28.052115       0
       11394.550       6.2746552       37.243502       0
       11406.452       39.479607       34.186336       0
       11418.355      -5.4891024       46.333317       0
       11430.258       44.505487       43.898642       0
       11442.160       40.661471       60.150607       0
       11454.063       58.985665       56.278995       0
       11465.966       80.523699       77.143221       0
       11477.868       14.041238       69.406837       0
       11489.771      -93.055673       91.878001       0
       11501.674      -46.384740       84.222525       0
       11513.577      -13.025873       115.05076       0
       11525.479       42.117038       108.14526       0
       11537.382       66.990796       152.60310       0
       11549.285       180.32991       149.68977       0
       11561.187      -184.26804       217.12940       0
       11573.090       298.04140       225.46424       0
       11584.993      -244.36141       333.91790       0
       11596.896       258.66708       341.16643       0
       11608.798       109.07555       508.54058       0
       11620.701       559.75256       509.51082       0
       11632.604       705.09943       746.60524       0
       11644.506       80.923899       731.69805       0
       11656.409      -88.787365       1121.6124       0
       11668.312       687.04558       1202.6846       0
       11680.214      -1352.8784       1865.9973       0
       11692.117      -1855.0255       1964.5394       0
       11704.020      -2887.4063       3157.8008       0
       11715.923      -4234.9218       3315.7538       0
       11727.825      -4966.6324       4704.3490       0
       11739.728       2718.2605       4092.0951       0
       11751.631      -3556.1705       4971.1268       0
