#WAVELENGTH FLUX ERROR MASK
       7478.5597       2862.9654       22936.708       0
       7490.4624       10505.924       26552.910       0
       7502.3651      -358.04606       18099.066       0
       7514.2678       7006.2676       18886.755       0
       7526.1705      -9192.1734       12934.897       0
       7538.0732      -2261.7680       13605.040       0
       7549.9759      -1654.7538       8798.1481       0
       7561.8786       5096.5303       8743.3683       0
       7573.7813      -473.49406       5699.8636       0
       7585.6840      -1758.6041       5572.2914       0
       7597.5867      -243.34264       3732.6338       0
       7609.4894      -2806.3519       3867.8301       0
       7621.3921      -1031.5258       2679.3875       0
       7633.2948       915.90012       2893.9395       0
       7645.1975      -1524.2057       1999.9370       0
       7657.1003      -478.46278       2147.1514       0
       7669.0030      -590.27786       1453.8533       0
       7680.9057      -467.12790       1503.9639       0
       7692.8084       24.147983       1030.2727       0
       7704.7111       594.07916       1077.8564       0
       7716.6138      -138.67832       748.86139       0
       7728.5165       72.378758       916.83345       0
       7740.4192       72.397588       635.17151       0
       7752.3219       96.098383       756.58861       0
       7764.2246       105.34640       537.40575       0
       7776.1273       458.21057       585.05430       0
       7788.0300       153.54890       431.28429       0
       7799.9327       282.35716       488.33854       0
       7811.8354      -444.13211       371.68517       0
       7823.7381      -185.83184       433.46970       0
       7835.6408       161.87702       286.78406       0
       7847.5435      -32.745961       318.32909       0
       7859.4462      -31.522624       233.44258       0
       7871.3489       240.00912       266.97154       0
       7883.2516       35.006764       198.27289       0
       7895.1543       50.045033       229.24932       0
       7907.0571      -148.12108       172.54730       0
       7918.9598       2.6643843       203.61049       0
       7930.8625       134.47720       176.00662       0
       7942.7652      -13.586707       193.95272       0
       7954.6679       89.904698       142.91332       0
       7966.5706       69.420896       168.98732       0
       7978.4733       66.551996       131.31126       0
       7990.3760      -50.636021       155.57301       0
       8002.2787       74.564296       122.39294       0
       8014.1814       100.40277       147.08272       0
       8026.0841      -42.491009       114.55733       0
       8037.9868       231.93975       141.29548       0
       8049.8895       54.940316       110.00462       0
       8061.7922       15.442373       133.56188       0
       8073.6949      -67.429601       105.85586       0
       8085.5976      -66.582771       128.92094       0
       8097.5003       22.544976       102.66718       0
       8109.4030      -110.09460       123.69667       0
       8121.3057      -16.327853       98.968218       0
       8133.2084      -4.7216930       120.43715       0
       8145.1111      -1.2987261       95.738159       0
       8157.0139       17.562562       116.34361       1
       8168.9166       39.983954       92.097200       1
       8180.8193       99.530654       135.39052       1
       8192.7220       27.958935       88.779547       1
       8204.6247      -24.434546       107.77017       1
       8216.5274       22.828885       85.323655       1
       8228.4301       97.454469       103.65466       1
       8240.3328      -21.452345       80.978689       1
       8252.2355       32.924244       98.106243       1
       8264.1382      -19.925746       76.870894       1
       8276.0409       138.21429       94.590532       1
       8287.9436       42.112539       74.016490       1
       8299.8463       19.238751       89.540553       1
       8311.7490       62.839806       71.157239       1
       8323.6517       34.012024       85.438257       1
       8335.5544       15.220723       68.131010       1
       8347.4571       33.283871       83.510049       1
       8359.3598       51.127777       66.791658       1
       8371.2625       39.885023       81.599110       1
       8383.1652       89.900130       65.224557       1
       8395.0679       21.967927       79.302165       1
       8406.9707      -4.5839678       62.897785       1
       8418.8734       33.135388       77.065059       1
       8430.7761       33.730069       61.284085       1
       8442.6788      -27.662035       73.921952       1
       8454.5815      -19.740746       58.970622       1
       8466.4842       58.012431       72.896763       1
       8478.3869       12.960341       57.648646       1
       8490.2896       25.461874       70.412252       1
       8502.1923       43.159906       56.140359       1
       8514.0950      -41.452246       68.021453       1
       8525.9977      -19.262856       54.554645       1
       8537.9004      -1.3014941       67.284673       1
       8549.8031      -14.031415       54.035651       1
       8561.7058       17.388792       66.352834       1
       8573.6085       11.758704       53.577532       1
       8585.5112       16.566855       66.258631       1
       8597.4139       22.170697       53.233263       1
       8609.3166      -13.554986       67.109645       1
       8621.2193       18.263240       52.952960       1
       8633.1220       28.897555       81.925308       1
       8645.0247       27.786389       52.589895       1
       8656.9275       8.9990908       64.489918       1
       8668.8302      -9.4633181       51.385285       1
       8680.7329      -37.022212       62.279473       1
       8692.6356      -55.869000       49.345897       1
       8704.5383      -7.1380938       60.649636       1
       8716.4410      -2.7440722       47.995220       1
       8728.3437       16.267062       58.548674       1
       8740.2464       46.888868       46.727522       1
       8752.1491       15.974742       56.917916       1
       8764.0518       8.1715115       45.305557       1
       8775.9545      -10.817200       62.816068       1
       8787.8572      -3.8693845       46.919329       1
       8799.7599      -8.1190709       54.516344       1
       8811.6626       16.706519       43.573951       1
       8823.5653       44.911566       53.866812       1
       8835.4680      -19.694851       42.547776       1
       8847.3707      -13.283976       52.244538       1
       8859.2734      -5.2949063       41.849756       1
       8871.1761      -26.404595       51.209194       1
       8883.0788      -4.3712675       41.055029       1
       8894.9816      -14.851779       50.325517       1
       8906.8843       2.8748560       40.525663       1
       8918.7870     -0.43661010       49.691711       1
       8930.6897      -1.3156527       39.790778       1
       8942.5924      -6.1628781       48.813332       1
       8954.4951       5.7146235       39.163589       1
       8966.3978      -24.532465       47.576358       1
       8978.3005      -28.227188       38.131294       1
       8990.2032      -24.316285       46.790292       1
       9002.1059       34.634778       37.837022       1
       9014.0086       15.692097       46.170977       1
       9025.9113     -0.93619130       37.251681       1
       9037.8140       52.506470       46.460049       1
       9049.7167       16.046254       37.340002       1
       9061.6194      -25.247056       45.448416       1
       9073.5221      -27.260164       36.495964       1
       9085.4248      -34.302106       44.409108       1
       9097.3275       80.774444       36.584404       1
       9109.2302      -11.808510       43.921833       1
       9121.1329      -8.0634739       35.176205       1
       9133.0356      -12.011900       43.327778       1
       9144.9384       20.415873       34.786311       1
       9156.8411      -13.915108       42.260702       1
       9168.7438       30.584749       34.244969       1
       9180.6465       4.2291742       41.660120       1
       9192.5492       40.904185       33.388183       1
       9204.4519      -21.798293       40.830207       1
       9216.3546      -12.282202       32.507723       1
       9228.2573       26.281434       40.371209       1
       9240.1600      -5.9613363       32.166929       1
       9252.0627       3.7306085       39.517502       1
       9263.9654     -0.29548197       31.880275       1
       9275.8681       20.744644       39.574252       1
       9287.7708      -16.765468       35.280171       1
       9299.6735      0.55662598       47.556288       1
       9311.5762      -30.832881       30.845187       1
       9323.4789       41.504795       38.856699       1
       9335.3816       2.6328504       31.073895       1
       9347.2843       4.8312501       38.149138       1
       9359.1870       8.7247245       30.833934       1
       9371.0897       11.647067       38.036985       1
       9382.9924      -14.065422       32.129909       1
       9394.8952      -9.3545222       37.310735       1
       9406.7979      -13.089486       29.926078       1
       9418.7006       10.862703       42.003751       1
       9430.6033       1.9838691       32.877541       1
       9442.5060       9.1552948       36.547516       1
       9454.4087      -23.010097       32.502168       1
       9466.3114      -1.5676987       36.238986       1
       9478.2141       6.5251765       29.332059       1
       9490.1168       11.098769       35.953132       1
       9502.0195      -1.5866972       28.756673       1
       9513.9222       12.357781       35.542924       1
       9525.8249       11.530203       28.561471       1
       9537.7276       24.256767       35.368623       1
       9549.6303       31.396392       28.400192       1
       9561.5330       1.8058172       34.777667       1
       9573.4357       6.6711783       27.912090       1
       9585.3384      -9.7766450       34.202241       1
       9597.2411      -5.9348329       27.512034       1
       9609.1438       9.7112584       34.042652       1
       9621.0465       7.8413695       27.400112       1
       9632.9492       21.800797       33.927716       1
       9644.8520       16.240153       29.063458       1
       9656.7547       15.222815       40.906586       1
       9668.6574      -15.701266       28.442640       1
       9680.5601      0.97274197       33.150814       1
       9692.4628      -22.227670       26.592150       1
       9704.3655      -6.6996808       32.740803       1
       9716.2682       11.840519       26.515357       1
       9728.1709       14.451423       32.846689       1
       9740.0736       12.258338       26.335562       1
       9751.9763      -15.629705       32.221659       1
       9763.8790       7.7609228       26.047007       1
       9775.7817       25.793753       32.423697       1
       9787.6844      -23.994691       25.674360       1
       9799.5871       20.083967       32.164789       1
       9811.4898       10.375718       25.807014       1
       9823.3925       3.1876471       31.876165       1
       9835.2952       3.6248930       25.659214       1
       9847.1979      -18.862633       31.506309       1
       9859.1006     -0.56891213       25.573321       1
       9871.0033       11.132372       31.775335       1
       9882.9060       11.301727       25.435981       1
       9894.8088       10.108087       31.486692       1
       9906.7115       8.5433830       25.762140       1
       9918.6142      -3.1133966       31.253464       1
       9930.5169       44.868176       25.711480       1
       9942.4196       41.071124       31.412893       1
       9954.3223       33.688992       25.022375       1
       9966.2250       7.4987419       30.541088       1
       9978.1277       12.065567       24.685405       1
       9990.0304       7.9902817       30.225316       1
       10001.933       35.644008       24.595706       1
       10013.836       26.223788       30.240967       1
       10025.739       10.420468       24.136139       1
       10037.641       11.384670       29.694971       1
       10049.544       31.749471       24.143720       1
       10061.447      -28.500929       29.335494       1
       10073.349       10.706459       23.947832       1
       10085.252       20.813097       29.817711       1
       10097.155       6.0346154       23.962296       1
       10109.057      -1.0224269       29.522194       1
       10120.960       14.507064       23.859123       1
       10132.863       11.271755       29.473285       1
       10144.766       23.514006       24.076037       1
       10156.668       5.8321481       29.242863       1
       10168.571       6.3722885       26.348952       1
       10180.474       16.345413       29.086983       1
       10192.376      -8.9298528       23.256098       1
       10204.279       23.649082       29.083796       1
       10216.182       4.5321149       23.195402       1
       10228.084      -20.740397       28.377756       1
       10239.987       4.5762831       22.915714       1
       10251.890       28.638897       28.333215       1
       10263.793      -16.231490       22.462461       1
       10275.695       13.681375       28.051866       1
       10287.598       27.401574       22.648374       1
       10299.501      0.72707594       27.677034       1
       10311.403       9.7142681       22.338251       1
       10323.306       23.894767       27.722169       1
       10335.209       14.427184       22.205530       1
       10347.112      -22.620419       27.156565       1
       10359.014       26.304537       22.214271       1
       10370.917       1.6451993       27.220694       1
       10382.820       21.179920       22.122406       1
       10394.722       10.150584       27.278562       1
       10406.625       20.912279       22.166962       1
       10418.528       35.401938       27.533162       1
       10430.430       1.3072474       21.860203       1
       10442.333       21.650971       27.136107       1
       10454.236       22.752251       21.932168       1
       10466.139       22.510196       27.076846       1
       10478.041       11.975156       21.774377       1
       10489.944       14.072258       27.112013       1
       10501.847      -6.2632055       21.783774       1
       10513.749       13.649597       26.947646       1
       10525.652      -5.8308063       21.680392       1
       10537.555       15.187185       27.081775       1
       10549.458      0.57281535       21.721394       1
       10561.360       7.3987094       27.008399       1
       10573.263       15.257278       21.750502       1
       10585.166       28.347680       27.905470       1
       10597.068       22.162231       21.745116       1
       10608.971      -1.4128006       26.484730       1
       10620.874       20.448365       21.513001       1
       10632.776       23.071706       26.462457       1
       10644.679      -1.9507352       21.057901       1
       10656.582      -4.6181739       26.006154       1
       10668.485      0.21956361       20.961271       1
       10680.387      -4.4574423       25.760831       1
       10692.290       8.8372308       20.955683       1
       10704.193      -10.854632       25.828739       1
       10716.095       14.859243       21.002328       1
       10727.998       21.883605       26.067959       1
       10739.901       10.341572       20.935011       1
       10751.803       14.126606       25.751492       1
       10763.706       6.1767724       20.806094       1
       10775.609     -0.88041285       25.626903       1
       10787.512      -2.9142091       20.710992       1
       10799.414       12.894467       25.848578       1
       10811.317       16.383661       20.910879       1
       10823.220      -10.635206       25.508769       1
       10835.122       4.4284316       20.727418       1
       10847.025       5.4360285       25.578549       1
       10858.928       12.996214       20.566361       1
       10870.831     0.099003978       25.328174       1
       10882.733      -7.0148025       20.328575       1
       10894.636       14.563254       25.294592       1
       10906.539       14.699976       20.474781       1
       10918.441       14.948170       25.354317       1
       10930.344       32.984139       20.598428       1
       10942.247       18.409529       25.425141       1
       10954.149       1.5705539       20.411897       1
       10966.052       35.198223       25.494105       1
       10977.955       15.168747       20.427493       1
       10989.858       24.573268       25.398497       1
       11001.760       38.418535       20.654740       1
       11013.663       14.853259       25.283092       1
       11025.566       2.7029306       20.014156       1
       11037.468       5.3007170       24.667502       1
       11049.371       15.744649       20.294026       1
       11061.274      -8.7718063       24.929735       1
       11073.177       21.907442       20.394498       1
       11085.079      0.44631854       25.121617       1
       11096.982       13.953570       20.368254       1
       11108.885       32.597842       25.235642       1
       11120.787       13.913170       20.267691       1
       11132.690       34.611619       25.258281       1
       11144.593       5.1877257       20.240044       1
       11156.495       9.0806412       25.193100       1
       11168.398       6.0188110       20.305878       1
       11180.301      -4.6097414       24.797814       1
       11192.204       17.412546       20.225221       1
       11204.106       25.723546       25.255083       0
       11216.009       17.654666       20.261804       0
       11227.912       16.740796       25.026087       0
       11239.814       24.197851       20.355977       0
       11251.717       25.216655       25.233685       0
       11263.620      -6.1174283       21.001716       0
       11275.523       11.525271       25.064391       0
       11287.425      -1.4429768       20.068274       0
       11299.328       4.5966742       25.098939       0
       11311.231       1.4921320       20.432947       0
       11323.133       18.748072       25.894627       0
       11335.036       10.448080       21.347430       0
       11346.939       19.644394       27.612022       0
       11358.841       21.876749       23.499353       0
       11370.744       10.634260       30.987806       0
       11382.647       9.5250084       27.290351       0
       11394.550       20.955162       37.378747       0
       11406.452       20.980406       33.655043       0
       11418.355      -14.803565       46.479340       0
       11430.258       43.729487       43.202783       0
       11442.160      -38.386592       59.961303       0
       11454.063      -23.588390       54.825555       0
       11465.966       35.639167       76.498913       0
       11477.868       18.481692       68.459929       0
       11489.771      -46.393478       93.156156       0
       11501.674       54.791069       83.655702       0
       11513.577       71.647486       116.35062       0
       11525.479      -13.771936       106.45152       0
       11537.382       34.703030       153.49782       0
       11549.285       121.67984       147.64456       0
       11561.187      -128.06383       219.38502       0
       11573.090       131.65327       220.56009       0
       11584.993      -69.151479       334.91099       0
       11596.896      -140.21030       333.57115       0
       11608.798       165.83800       509.69206       0
       11620.701      -17.155085       494.05978       0
       11632.604       156.64525       739.60021       0
       11644.506       87.892257       719.84788       0
       11656.409      -181.60032       1118.7741       0
       11668.312       24.420267       1177.2632       0
       11680.214      -2190.4857       1862.3906       0
       11692.117       1130.2774       1964.7782       0
       11704.020       481.18501       3191.4290       0
       11715.923      -721.93304       3279.0900       0
       11727.825       442.85733       4722.1775       0
       11739.728       32.383005       4273.1144       0
       11751.631       3517.1474       5669.7605       0
